Time,F3 - C3,C3 - P3,P3 - O1,F4 - C4,C4 - P4,P4 - O2,FZ - CZ,CZ - PZ
1,1,-4,-4,-1,-2,-5,1,-4
2,2,-3,-3,0,-2,-4,0,-2
3,2,-2,-2,1,-3,-3,0,-1
4,3,-2,-2,1,-4,-1,-1,0
5,3,-2,-1,0,-5,2,-2,0
6,2,-2,1,-1,-6,3,-3,1
7,1,-2,2,-3,-5,5,-4,1
8,0,-2,2,-5,-5,5,-6,2
9,-1,-1,2,-7,-4,6,-8,2
10,-2,-1,2,-8,-3,7,-9,2
11,-4,-1,2,-9,-3,7,-10,2
12,-5,-1,2,-9,-3,8,-12,2
13,-7,-1,3,-8,-3,9,-12,1
14,-7,-1,5,-8,-4,9,-13,1
15,-8,-1,7,-7,-4,10,-14,1
16,-8,0,8,-7,-5,11,-14,2
17,-8,1,9,-7,-5,11,-14,3
18,-7,1,9,-6,-5,10,-14,4
19,-6,2,7,-6,-4,8,-12,5
20,-4,3,4,-5,-4,6,-10,6
21,-3,5,2,-3,-3,4,-7,7
22,-1,7,-1,-2,-3,3,-5,8
23,-1,8,-3,-2,-2,3,-4,9
24,-1,10,-4,-2,-1,5,-3,10
25,-2,10,-6,-2,-1,7,-4,10
26,-3,10,-7,-3,-1,8,-5,10
27,-5,9,-6,-5,0,9,-7,9
28,-6,9,-5,-6,0,10,-8,8
29,-8,9,-3,-7,1,10,-9,8
30,-9,9,0,-8,2,10,-10,8
31,-9,9,1,-8,2,10,-10,8
32,-9,9,2,-8,2,9,-9,8
33,-8,9,2,-8,2,8,-8,8
34,-7,10,2,-7,3,7,-7,9
35,-6,10,2,-6,4,6,-6,10
36,-5,10,3,-5,5,6,-5,11
37,-4,9,3,-3,6,6,-5,12
38,-3,8,3,-2,6,7,-5,11
39,-3,6,2,-1,5,7,-5,9
40,-4,4,3,-1,4,6,-5,6
41,-5,3,5,-2,3,6,-5,3
42,-6,1,6,-3,2,5,-4,0
43,-6,-1,5,-4,0,5,-4,-3
44,-6,-2,4,-5,-1,5,-5,-5
45,-5,-2,3,-5,-2,4,-5,-5
46,-4,-2,2,-5,-2,3,-5,-4
47,-3,-1,1,-4,-2,2,-6,-2
48,-3,1,0,-4,-1,1,-6,1
49,-2,1,-1,-3,0,-1,-5,3
50,-1,1,-2,-2,1,-1,-3,5
51,-1,1,-3,-1,1,-1,-2,5
52,-2,-1,-4,-1,0,-1,-1,4
53,-2,-1,-5,-1,-1,-2,-1,4
54,-3,-1,-3,-1,-1,-2,-2,5
55,-4,1,-2,0,0,-2,-3,7
56,-5,3,0,0,1,-2,-4,9
57,-5,4,1,0,1,-2,-6,10
58,-6,5,2,-1,1,-2,-7,10
59,-7,5,1,-2,0,-1,-8,9
60,-7,5,-1,-3,-2,1,-9,7
61,-7,5,-1,-5,-5,2,-9,6
62,-7,5,-1,-5,-7,4,-9,4
63,-6,4,-1,-6,-9,7,-8,2
64,-5,3,-1,-6,-9,9,-7,1
65,-5,2,0,-6,-9,11,-6,0
66,-5,1,1,-5,-8,12,-5,-1
67,-6,0,2,-5,-7,11,-5,-2
68,-6,-1,4,-4,-6,9,-4,-2
69,-6,-1,4,-3,-6,7,-3,-2
70,-5,0,4,-2,-6,6,-2,-1
71,-4,1,3,-1,-6,6,-1,1
72,-2,1,3,0,-6,6,-1,2
73,-1,1,3,2,-6,6,0,3
74,0,0,3,2,-6,4,1,3
75,0,-1,2,3,-7,2,1,2
76,-1,-2,0,3,-8,0,0,2
77,-1,-2,-1,3,-8,-1,0,2
78,-2,-2,-1,3,-7,-2,0,2
79,-2,-2,0,3,-6,-1,0,2
80,-1,-2,3,3,-6,1,1,2
81,-1,-1,5,3,-6,3,1,3
82,-1,-1,7,3,-7,5,1,3
83,-2,0,8,2,-8,7,1,2
84,-3,0,7,1,-9,10,1,2
85,-3,0,6,0,-9,12,1,0
86,-3,-1,4,-1,-10,13,2,-2
87,-2,-2,3,-1,-12,14,3,-4
88,-1,-3,2,0,-13,15,3,-5
89,0,-3,2,1,-13,15,4,-5
90,1,-2,2,1,-12,15,4,-4
91,2,-1,3,1,-11,14,4,-3
92,2,0,3,1,-9,13,5,-3
93,3,1,3,1,-8,13,6,-2
94,3,2,5,0,-7,12,7,-2
95,3,2,7,0,-7,13,8,-1
96,3,1,9,1,-9,15,8,0
97,3,1,9,1,-13,19,8,1
98,3,1,9,2,-19,24,8,1
99,4,0,7,3,-25,30,8,1
100,4,-1,5,4,-31,34,8,1
101,4,-2,5,4,-35,37,8,0
102,3,-2,6,3,-37,39,7,0
103,2,-2,7,3,-37,39,6,0
104,2,-2,6,2,-37,39,5,0
105,2,-1,5,1,-36,40,5,1
106,3,0,3,1,-37,41,6,2
107,3,1,2,1,-37,41,6,2
108,3,1,2,1,-36,41,5,2
109,2,2,2,1,-36,41,5,2
110,1,2,3,1,-36,40,4,2
111,0,2,4,0,-36,40,3,2
112,0,2,5,-1,-35,40,3,1
113,0,1,6,-1,-35,40,2,0
114,0,0,8,-1,-35,39,2,-1
115,0,-2,8,-1,-35,38,2,-4
116,0,-4,7,0,-36,35,3,-8
117,-1,-5,7,1,-36,33,3,-10
118,-2,-6,6,1,-36,31,4,-12
119,-2,-7,6,1,-35,29,4,-12
120,-3,-7,5,2,-33,26,3,-11
121,-3,-7,4,2,-32,25,3,-11
122,-3,-8,3,2,-32,23,2,-10
123,-3,-8,0,2,-33,22,1,-11
124,-4,-8,-2,2,-33,21,0,-11
125,-4,-8,-2,1,-33,20,0,-11
126,-4,-6,-1,1,-33,20,1,-10
127,-4,-4,1,1,-32,20,2,-9
128,-4,-3,3,1,-30,20,2,-7
129,-4,-2,4,2,-28,20,2,-6
130,-4,-2,4,2,-26,20,3,-6
131,-3,-2,4,3,-24,20,3,-5
132,-3,-2,4,5,-23,20,4,-6
133,-2,-1,3,6,-22,19,5,-6
134,-1,-1,1,6,-21,18,6,-6
135,0,-1,-1,7,-20,17,7,-6
136,1,-1,-1,7,-19,17,7,-6
137,2,-1,-1,7,-18,16,7,-6
138,3,-1,1,7,-17,17,8,-5
139,3,1,3,7,-16,17,8,-4
140,4,2,4,8,-14,17,8,-2
141,4,4,4,9,-13,16,8,1
142,5,6,5,10,-11,16,7,3
143,5,7,5,11,-10,15,7,5
144,5,8,5,12,-9,14,7,6
145,6,9,7,13,-7,14,8,7
146,7,9,9,14,-7,15,9,7
147,8,10,10,14,-6,16,10,8
148,9,10,11,13,-6,17,11,8
149,9,10,12,12,-6,17,11,8
150,9,10,13,12,-6,17,10,8
151,9,9,13,12,-6,18,9,8
152,8,9,14,12,-5,19,9,8
153,8,8,16,12,-5,20,8,7
154,8,7,17,12,-6,21,9,6
155,8,6,16,11,-7,21,9,4
156,9,4,14,11,-8,20,9,1
157,9,1,11,10,-10,19,9,-2
158,8,-1,9,9,-11,17,8,-4
159,8,-2,9,7,-11,17,8,-6
160,7,-2,10,6,-11,17,7,-6
161,6,-2,11,5,-11,18,7,-6
162,6,-1,12,5,-11,18,6,-6
163,6,-1,12,5,-10,18,6,-5
164,6,0,12,5,-8,18,6,-3
165,7,1,11,6,-6,17,6,-1
166,8,2,9,6,-4,15,6,2
167,8,4,6,6,-2,12,6,4
168,8,5,4,6,-1,10,6,6
169,7,6,2,6,-1,7,5,6
170,6,6,1,6,-2,6,5,5
171,6,6,1,6,-2,5,5,3
172,5,5,3,6,-1,6,5,2
173,6,4,5,6,-1,6,6,1
174,6,3,6,6,1,6,6,0
175,6,3,8,6,2,6,7,0
176,6,3,8,7,4,5,7,2
177,6,3,7,8,4,3,7,3
178,7,4,4,8,4,1,7,5
179,9,4,2,8,4,-1,7,6
180,10,5,1,8,4,-1,7,7
181,10,6,2,8,3,0,7,8
182,10,8,3,7,3,2,7,8
183,10,9,4,7,2,5,6,8
184,9,10,5,8,2,7,6,8
185,9,11,6,8,3,8,6,9
186,9,12,7,9,4,7,6,10
187,9,12,6,10,6,4,7,11
188,9,11,6,11,7,2,7,12
189,8,11,6,12,8,-1,7,13
190,7,11,6,12,8,-2,7,14
191,6,10,5,10,9,-3,6,13
192,4,9,3,8,8,-3,5,12
193,2,7,2,6,8,-3,4,9
194,2,6,2,4,8,-3,4,7
195,2,5,1,2,7,-2,4,5
196,2,4,1,1,7,-2,4,4
197,3,5,2,2,6,-2,5,3
198,5,5,4,2,6,-2,6,4
199,5,6,4,3,5,-2,6,4
200,5,8,3,3,4,-3,6,5
201,5,9,1,3,2,-2,6,5
202,4,10,-1,2,2,-2,5,5
203,3,11,-2,1,1,0,3,6
204,4,11,-2,1,-1,1,3,6
205,4,11,0,1,-2,2,2,6
206,5,11,2,2,-3,3,3,8
207,6,12,3,3,-2,5,4,9
208,7,12,2,4,-1,5,4,11
209,7,13,1,4,0,5,5,13
210,8,13,0,5,2,4,6,15
211,8,12,0,6,2,4,7,16
212,8,11,0,8,2,2,7,16
213,8,9,-1,9,2,-1,8,13
214,7,7,-2,9,0,-3,8,10
215,6,3,-4,9,-2,-5,8,6
216,6,1,-5,9,-5,-5,8,1
217,5,-2,-5,8,-7,-5,8,-2
218,4,-4,-3,8,-9,-4,7,-5
219,4,-5,-2,8,-11,-3,6,-6
220,3,-5,-1,8,-12,-1,6,-7
221,3,-4,-2,9,-13,0,5,-7
222,3,-2,-4,10,-13,1,5,-6
223,4,2,-4,11,-12,2,6,-4
224,5,6,-2,12,-10,3,7,0
225,6,10,1,12,-7,6,7,4
226,7,14,3,11,-4,8,7,9
227,7,17,5,11,0,10,7,13
228,7,19,5,10,2,10,7,17
229,7,19,3,10,4,10,7,19
230,6,19,2,10,4,8,6,20
231,5,17,0,9,4,5,6,20
232,5,14,-1,9,3,2,5,18
233,4,11,-2,9,1,-1,5,14
234,4,8,-5,9,-2,-3,5,10
235,3,5,-8,9,-3,-4,5,5
236,3,2,-9,7,-5,-5,5,1
237,3,0,-9,6,-7,-4,4,-3
238,2,-2,-8,5,-9,-3,4,-6
239,1,-2,-7,3,-10,-2,4,-7
240,0,-2,-6,2,-11,-1,3,-8
241,-1,0,-4,1,-10,-1,3,-8
242,-2,2,-3,-1,-9,-1,2,-6
243,-2,4,-3,-2,-7,-1,2,-3
244,-2,6,-4,-2,-5,-1,1,0
245,-2,8,-5,-2,-4,-1,1,3
246,-1,10,-5,-1,-3,1,2,6
247,0,13,-5,0,-2,1,2,8
248,2,16,-3,2,-1,2,3,11
249,3,18,-2,4,1,1,3,14
250,3,19,-2,5,2,-1,4,16
251,4,19,-4,7,3,-4,4,18
252,4,19,-7,8,4,-7,4,19
253,4,19,-10,8,5,-9,5,19
254,4,18,-12,8,5,-11,4,18
255,4,15,-11,8,4,-10,4,16
256,4,12,-9,7,4,-9,3,13
257,3,8,-5,6,3,-7,2,9
258,3,5,-2,5,2,-5,2,6
259,4,2,0,4,2,-5,3,4
260,4,0,0,4,2,-5,4,3
261,4,-1,-3,5,1,-7,5,2
262,3,-2,-7,6,0,-8,6,1
263,2,-1,-11,7,-1,-9,7,0
264,2,0,-12,7,-1,-9,7,1
265,2,3,-12,7,0,-8,7,3
266,2,6,-11,6,2,-7,6,6
267,2,10,-10,5,4,-6,5,9
268,3,12,-9,4,7,-5,4,11
269,3,13,-8,3,9,-6,4,12
270,3,13,-8,3,10,-8,4,13
271,3,12,-10,3,12,-10,5,12
272,3,12,-12,4,12,-11,5,12
273,2,11,-13,4,13,-12,5,12
274,1,11,-13,5,14,-13,5,12
275,0,11,-10,5,15,-13,5,14
276,0,11,-7,6,15,-13,5,15
277,1,11,-4,6,15,-14,5,15
278,1,10,-3,6,14,-14,5,14
279,2,8,-4,5,12,-16,5,12
280,2,5,-6,4,10,-16,4,10
281,2,1,-6,3,7,-16,2,7
282,2,-1,-6,2,5,-14,1,4
283,1,-3,-5,1,4,-13,0,1
284,0,-3,-5,0,3,-11,-1,0
285,-1,-2,-5,-1,3,-9,-1,-1
286,-1,0,-5,-1,4,-7,-1,-1
287,-2,3,-4,-2,5,-5,-1,1
288,-2,6,-2,-2,8,-3,-2,3
289,-3,9,0,-3,10,-1,-2,4
290,-2,10,1,-3,12,1,-3,6
291,0,10,1,-3,15,3,-4,8
292,2,10,1,-4,18,3,-4,11
293,4,11,1,-3,21,1,-4,13
294,6,11,0,-3,22,-1,-3,16
295,7,11,-2,-2,23,-4,-1,16
296,8,9,-6,-1,22,-8,0,15
297,9,7,-10,-1,19,-12,2,12
298,9,3,-14,1,14,-16,3,9
299,9,-2,-16,2,9,-18,4,6
300,9,-6,-17,3,5,-20,4,3
301,9,-10,-16,4,1,-21,4,-1
302,9,-13,-14,5,-3,-21,4,-4
303,9,-17,-14,5,-5,-20,4,-7
304,9,-19,-14,4,-7,-20,4,-9
305,8,-21,-13,3,-8,-18,3,-11
306,7,-20,-10,2,-8,-16,1,-10
307,6,-19,-6,0,-6,-13,-1,-9
308,4,-16,-1,-2,-4,-8,-3,-6
309,3,-12,4,-3,-1,-4,-4,-4
310,2,-8,8,-5,2,1,-5,-2
311,1,-6,12,-6,5,6,-6,0
312,1,-3,14,-7,7,11,-6,1
313,1,-1,17,-7,8,15,-6,2
314,2,1,17,-7,9,18,-5,4
315,2,3,16,-6,10,17,-6,6
316,3,5,13,-5,11,15,-6,9
317,3,7,9,-3,13,11,-5,12
318,4,8,4,-2,14,6,-5,14
319,5,8,-1,-1,15,2,-4,16
320,6,8,-6,-1,14,-3,-3,15
321,7,5,-10,0,12,-8,-2,13
322,7,3,-13,1,10,-12,-2,10
323,6,0,-14,2,6,-14,-2,7
324,5,-2,-15,2,3,-16,-2,5
325,4,-4,-15,3,0,-17,-2,2
326,4,-6,-15,4,-2,-17,-2,-1
327,4,-8,-14,4,-4,-15,-2,-3
328,3,-11,-10,3,-4,-12,-2,-6
329,2,-12,-5,2,-3,-8,-3,-8
330,1,-12,2,0,-3,-4,-3,-9
331,1,-11,6,-2,-1,-1,-4,-9
332,0,-10,8,-3,1,1,-6,-8
333,-1,-9,7,-4,2,2,-6,-7
334,-1,-8,5,-4,4,2,-7,-5
335,-1,-6,4,-3,5,3,-6,-3
336,-1,-4,2,-2,6,3,-6,-2
337,-1,-2,2,-1,7,2,-5,1
338,0,-1,3,0,9,1,-4,2
339,0,1,3,1,10,-3,-4,4
340,0,2,1,1,10,-6,-3,4
341,0,2,-2,1,10,-10,-2,4
342,0,1,-6,2,7,-13,-1,3
343,1,1,-11,4,5,-17,1,2
344,2,0,-15,6,3,-19,3,2
345,3,-1,-19,8,1,-22,5,3
346,4,-1,-20,10,0,-25,6,3
347,5,-2,-19,11,0,-26,7,4
348,6,-2,-16,11,0,-25,7,4
349,6,-3,-11,10,0,-22,7,3
350,5,-4,-8,8,-1,-19,7,1
351,5,-6,-7,6,-2,-15,6,-1
352,4,-7,-6,4,-3,-12,5,-3
353,4,-7,-6,3,-4,-9,4,-4
354,3,-7,-5,2,-4,-6,4,-4
355,3,-5,-3,2,-3,-3,4,-4
356,3,-4,0,2,-1,-1,4,-4
357,2,-3,2,2,0,1,4,-5
358,2,-3,2,3,1,2,5,-6
359,1,-4,-1,3,2,1,5,-6
360,0,-4,-4,3,3,-2,5,-6
361,0,-3,-8,3,4,-5,5,-4
362,1,-2,-11,3,5,-8,5,-2
363,1,-2,-12,3,6,-12,5,1
364,1,-1,-13,3,6,-14,5,3
365,2,-1,-13,2,6,-15,4,4
366,2,-1,-13,1,5,-16,3,6
367,1,-1,-12,1,3,-15,2,6
368,0,0,-12,0,1,-14,1,6
369,-2,0,-11,0,-3,-12,0,5
370,-3,0,-8,0,-6,-10,-1,3
371,-4,-1,-4,0,-9,-7,-2,0
372,-5,-3,0,-1,-11,-4,-3,-3
373,-6,-5,3,-2,-12,-3,-4,-5
374,-6,-6,4,-3,-13,-3,-4,-7
375,-6,-7,3,-3,-12,-4,-4,-8
376,-6,-8,3,-3,-11,-5,-4,-8
377,-6,-8,3,-2,-9,-5,-3,-7
378,-5,-7,4,-2,-6,-4,-3,-5
379,-5,-6,6,-2,-3,-2,-3,-4
380,-5,-5,8,-1,-1,0,-3,-3
381,-4,-4,9,-1,2,2,-2,-2
382,-2,-3,9,-1,3,2,-1,-2
383,1,-2,8,0,4,2,1,-1
384,3,-2,6,2,5,1,3,1
385,5,-1,4,3,6,-2,4,3
386,6,1,1,4,7,-5,6,5
387,6,2,-1,5,9,-8,6,7
388,6,4,-3,7,10,-12,7,10
389,5,5,-4,7,11,-15,7,13
390,5,7,-4,8,11,-16,7,15
391,4,9,-4,8,10,-16,7,16
392,4,11,-3,8,9,-15,7,17
393,4,12,-3,7,7,-13,7,16
394,3,12,-4,6,5,-11,6,14
395,2,11,-5,4,2,-9,5,10
396,-1,9,-4,2,0,-6,3,7
397,-3,7,-2,-1,-2,-5,1,3
398,-5,4,1,-4,-3,-4,-1,-1
399,-7,2,3,-5,-3,-3,-3,-4
400,-8,0,5,-5,-3,-3,-4,-5
401,-8,0,8,-5,-1,-2,-4,-5
402,-7,0,11,-4,1,-1,-3,-5
403,-6,1,14,-3,4,2,-2,-3
404,-4,2,17,-2,8,4,0,0
405,-3,4,19,-1,12,5,2,4
406,-2,5,20,0,16,5,2,7
407,-2,5,20,1,18,4,3,10
408,-2,5,18,1,18,2,2,11
409,-2,4,15,0,17,0,1,10
410,-3,2,11,-1,14,-2,0,7
411,-4,-1,8,-2,10,-4,-2,3
412,-6,-3,6,-3,5,-5,-3,-1
413,-6,-5,4,-4,1,-6,-3,-4
414,-6,-7,2,-3,-3,-6,-3,-6
415,-5,-8,0,-3,-6,-6,-2,-8
416,-4,-9,-1,-2,-9,-5,-1,-10
417,-3,-9,-2,-2,-11,-4,0,-11
418,-2,-8,0,-2,-11,-2,1,-11
419,-1,-6,3,-3,-10,-1,1,-11
420,0,-4,7,-3,-7,0,1,-9
421,1,-1,10,-2,-5,0,2,-7
422,1,1,12,-1,-2,1,3,-5
423,1,2,12,1,0,1,4,-5
424,1,1,11,1,1,1,4,-5
425,1,0,11,1,2,1,4,-5
426,0,0,10,0,3,0,3,-6
427,-1,0,8,-2,4,0,1,-6
428,-3,0,6,-4,5,0,0,-6
429,-4,0,4,-5,7,1,-2,-5
430,-5,-1,4,-7,7,2,-3,-6
431,-6,-3,4,-8,7,2,-4,-7
432,-7,-5,4,-10,6,1,-5,-10
433,-8,-8,3,-11,4,-1,-5,-13
434,-9,-11,2,-11,1,-4,-5,-16
435,-10,-13,-1,-11,-3,-6,-4,-19
436,-10,-15,-4,-11,-6,-8,-3,-21
437,-10,-16,-6,-11,-8,-10,-3,-22
438,-10,-17,-8,-10,-10,-12,-3,-22
439,-9,-17,-9,-10,-11,-13,-3,-22
440,-9,-17,-9,-9,-11,-15,-3,-22
441,-9,-17,-8,-9,-11,-15,-3,-21
442,-9,-14,-5,-9,-10,-14,-4,-20
443,-9,-12,-2,-9,-9,-12,-4,-18
444,-9,-9,1,-9,-7,-9,-5,-16
445,-10,-7,4,-9,-5,-6,-6,-15
446,-10,-5,6,-9,-2,-3,-7,-14
447,-10,-4,7,-10,0,-1,-7,-13
448,-10,-4,8,-10,2,-1,-8,-11
449,-9,-4,6,-9,4,-2,-8,-10
450,-8,-5,3,-9,5,-5,-7,-9
451,-6,-6,-2,-8,6,-8,-6,-8
452,-4,-8,-6,-7,7,-10,-4,-7
453,-3,-10,-9,-7,7,-11,-3,-6
454,-2,-12,-10,-7,6,-11,-2,-6
455,-1,-14,-11,-8,3,-11,-2,-6
456,-1,-16,-11,-8,1,-11,-1,-7
457,-1,-16,-12,-7,-2,-12,0,-8
458,-2,-15,-15,-7,-4,-14,1,-9
459,-3,-13,-17,-5,-6,-16,1,-9
460,-4,-11,-18,-3,-7,-18,2,-8
461,-6,-9,-19,-1,-8,-20,2,-7
462,-8,-6,-18,1,-8,-21,2,-5
463,-9,-2,-16,2,-8,-20,2,-3
464,-10,1,-15,2,-8,-19,1,-1
465,-11,4,-14,2,-8,-17,1,-1
466,-11,6,-12,2,-6,-15,1,-1
467,-11,7,-8,1,-4,-14,1,-1
468,-11,8,-3,1,-1,-12,1,-1
469,-10,9,2,0,4,-9,1,-1
470,-10,10,7,-1,7,-7,1,0
471,-10,10,9,-2,10,-5,0,1
472,-10,10,9,-3,11,-4,0,0
473,-10,8,5,-4,11,-4,-1,0
474,-9,6,1,-4,9,-5,-1,-1
475,-8,4,-3,-4,8,-5,0,-2
476,-8,3,-5,-5,8,-6,0,-2
477,-8,1,-4,-5,7,-7,-1,-3
478,-9,-1,-2,-6,7,-6,-2,-3
479,-11,-3,1,-8,6,-6,-4,-4
480,-13,-4,3,-9,5,-5,-6,-5
481,-14,-5,3,-10,4,-5,-8,-6
482,-15,-5,2,-12,2,-6,-9,-8
483,-16,-6,1,-13,0,-9,-10,-9
484,-16,-6,0,-14,-2,-11,-10,-11
485,-16,-6,0,-14,-4,-13,-10,-12
486,-15,-7,1,-14,-5,-14,-9,-15
487,-15,-8,3,-13,-6,-13,-9,-17
488,-15,-8,4,-12,-7,-12,-8,-18
489,-15,-7,6,-11,-7,-10,-7,-18
490,-15,-6,7,-11,-7,-8,-6,-17
491,-15,-4,7,-10,-6,-6,-6,-16
492,-15,-2,6,-9,-5,-4,-6,-14
493,-15,-1,6,-8,-4,-3,-6,-12
494,-14,-1,7,-7,-3,-1,-6,-10
495,-13,0,6,-6,-2,-1,-5,-9
496,-12,0,5,-5,-1,-1,-4,-9
497,-10,0,4,-4,0,-2,-3,-8
498,-9,2,2,-4,1,-3,-2,-7
499,-9,3,0,-4,2,-5,-2,-4
500,-8,5,-1,-4,2,-7,-2,-1
501,-8,6,-2,-4,3,-8,-2,2
502,-8,7,-4,-5,2,-9,-2,4
503,-8,7,-6,-5,1,-10,-2,4
504,-9,6,-9,-5,-2,-12,-1,2
505,-8,4,-9,-5,-4,-14,0,-1
506,-7,3,-8,-4,-6,-16,1,-3
507,-7,2,-5,-3,-7,-16,2,-3
508,-6,2,-2,-2,-8,-14,3,-3
509,-6,2,1,-1,-8,-12,3,-3
510,-6,2,3,0,-8,-10,3,-2
511,-6,3,6,0,-7,-9,1,-1
512,-6,4,8,0,-6,-7,0,1
513,-6,6,11,0,-4,-5,-1,3
514,-6,8,12,-1,-1,-3,-2,5
515,-6,9,11,-1,3,-2,-2,6
516,-6,9,10,-2,6,-1,-3,7
517,-6,10,10,-2,8,0,-3,8
518,-7,10,11,-2,9,1,-3,8
519,-7,11,13,-3,10,1,-4,9
520,-8,12,15,-3,11,2,-5,9
521,-9,12,14,-4,12,2,-5,10
522,-10,11,11,-5,12,2,-6,9
523,-11,10,6,-6,12,1,-6,9
524,-12,9,2,-7,12,-1,-5,8
525,-11,8,-1,-6,11,-4,-4,7
526,-11,8,-1,-5,9,-6,-2,5
527,-10,8,-1,-5,7,-9,0,3
528,-10,8,-1,-5,5,-10,2,2
529,-9,8,1,-5,4,-11,4,1
530,-9,9,1,-5,3,-11,5,1
531,-9,9,1,-5,2,-11,5,1
532,-9,9,0,-5,1,-9,5,2
533,-8,8,-1,-4,-1,-8,5,2
534,-7,8,-2,-3,-2,-7,5,2
535,-7,9,0,-2,-2,-5,4,2
536,-7,10,3,-1,-1,-3,4,3
537,-7,12,6,0,1,-1,5,4
538,-6,14,8,1,4,0,6,6
539,-4,17,9,2,7,1,8,9
540,-2,20,9,3,9,2,9,11
541,-1,21,9,4,12,4,9,14
542,1,22,8,4,14,6,9,17
543,1,21,8,4,16,8,8,18
544,2,20,7,4,17,11,8,18
545,2,17,5,3,18,12,8,17
546,2,14,3,4,17,12,9,14
547,2,12,2,4,15,10,9,12
548,2,10,1,5,12,7,10,10
549,2,9,-1,7,9,2,11,8
550,2,8,-4,7,5,-4,10,7
551,1,6,-8,7,1,-9,10,5
552,0,5,-12,6,-3,-12,8,4
553,-1,4,-14,5,-6,-14,6,3
554,-2,3,-14,4,-8,-15,4,2
555,-3,2,-11,4,-8,-15,3,2
556,-3,3,-9,4,-9,-15,2,2
557,-3,3,-9,5,-9,-14,3,2
558,-2,3,-9,5,-9,-14,3,1
559,-2,2,-9,5,-9,-13,4,-1
560,-2,3,-7,6,-9,-12,4,-1
561,-3,4,-4,6,-8,-11,4,0
562,-3,5,0,7,-5,-8,4,2
563,-2,8,4,7,-1,-6,3,6
564,-1,10,7,8,4,-4,3,9
565,0,12,10,8,9,-3,3,13
566,0,13,12,8,12,-2,3,15
567,0,13,13,8,15,-2,3,16
568,-1,12,14,7,17,-1,3,16
569,-1,11,13,6,17,1,3,15
570,-1,9,10,5,17,2,3,13
571,0,6,7,4,16,2,4,12
572,0,4,4,4,14,2,4,10
573,1,2,3,4,11,0,4,8
574,0,1,2,3,8,-2,3,6
575,-2,0,2,3,4,-5,2,3
576,-3,-1,0,2,0,-6,1,1
577,-5,-2,-3,2,-4,-7,1,-3
578,-5,-3,-7,2,-8,-8,0,-5
579,-5,-4,-10,2,-11,-7,0,-8
580,-5,-4,-10,2,-14,-5,1,-10
581,-4,-4,-7,2,-16,-3,1,-11
582,-4,-3,-2,2,-17,0,1,-11
583,-3,-2,4,1,-17,3,1,-11
584,-3,0,9,1,-14,5,1,-10
585,-4,1,13,0,-11,7,1,-8
586,-4,3,16,0,-7,10,0,-4
587,-4,5,20,0,-3,12,-1,0
588,-3,6,22,2,1,13,-1,5
589,-2,8,24,3,4,14,-1,9
590,-1,10,24,4,7,14,0,12
591,1,11,21,5,10,13,1,14
592,1,10,17,4,11,12,2,14
593,1,8,12,3,11,11,2,12
594,0,5,9,1,10,10,2,9
595,-1,1,7,-1,8,10,1,5
596,-2,-3,6,-3,4,10,0,2
597,-3,-6,6,-5,0,9,0,-2
598,-3,-8,5,-5,-5,8,0,-5
599,-2,-9,5,-5,-9,6,1,-8
600,-1,-10,5,-4,-14,4,1,-12
601,-1,-9,6,-4,-17,4,2,-15
602,-1,-8,8,-3,-18,4,3,-17
603,-1,-7,9,-3,-18,5,3,-17
604,-1,-5,9,-3,-17,6,3,-17
605,-1,-4,8,-3,-15,6,2,-16
606,-1,-3,7,-3,-13,6,2,-14
607,-1,-1,6,-3,-9,6,1,-11
608,-1,0,8,-3,-5,7,1,-8
609,-1,2,11,-3,-1,9,0,-5
610,-2,3,15,-3,3,10,0,-2
611,-2,4,18,-3,5,10,0,0
612,-2,4,20,-3,7,10,-1,1
613,-2,4,21,-3,7,9,-1,1
614,-2,4,20,-3,8,9,0,1
615,-1,3,20,-2,8,10,1,0
616,0,0,19,-2,7,10,2,-2
617,1,-3,18,-1,5,10,2,-5
618,1,-7,16,-1,3,9,2,-8
619,0,-10,13,-1,-1,7,2,-11
620,-1,-13,9,-1,-4,5,0,-13
621,-2,-15,6,-2,-8,3,-1,-16
622,-3,-17,3,-3,-12,2,-2,-17
623,-3,-18,1,-4,-14,1,-3,-18
624,-3,-18,-2,-4,-17,-1,-3,-19
625,-3,-16,-4,-4,-18,-2,-2,-20
626,-2,-14,-5,-3,-19,-4,-2,-20
627,-3,-12,-5,-4,-19,-5,-2,-20
628,-3,-10,-4,-5,-18,-4,-2,-19
629,-4,-7,-1,-6,-16,-2,-4,-17
630,-4,-4,3,-7,-13,2,-5,-13
631,-3,-2,6,-8,-10,5,-7,-9
632,-3,0,8,-9,-7,7,-8,-6
633,-2,1,9,-8,-5,9,-8,-3
634,-1,2,12,-8,-4,10,-8,-1
635,-1,3,15,-7,-2,9,-8,0
636,-2,3,17,-6,-1,8,-8,1
637,-4,3,17,-4,1,7,-7,2
638,-5,3,16,-3,1,6,-7,3
639,-6,2,13,-2,1,6,-7,4
640,-5,-1,10,-1,1,5,-7,4
641,-4,-3,7,0,-1,4,-7,4
642,-2,-4,4,0,-2,4,-6,4
643,-1,-5,3,0,-3,3,-6,3
644,0,-7,2,-1,-5,2,-5,1
645,0,-9,0,-1,-8,2,-5,-3
646,-1,-10,-2,-2,-11,3,-5,-6
647,-2,-12,-1,-4,-13,3,-5,-10
648,-3,-12,1,-6,-14,5,-6,-12
649,-4,-12,4,-7,-14,6,-7,-13
650,-5,-12,6,-7,-14,7,-7,-13
651,-5,-11,7,-7,-13,9,-7,-12
652,-5,-10,8,-7,-12,10,-6,-11
653,-5,-9,8,-7,-11,11,-5,-10
654,-6,-8,8,-7,-10,11,-4,-9
655,-6,-8,7,-7,-9,10,-4,-7
656,-7,-6,7,-7,-7,10,-5,-5
657,-7,-4,7,-6,-5,9,-5,-2
658,-7,-2,7,-6,-3,9,-5,1
659,-7,1,7,-6,-1,9,-5,5
660,-6,2,8,-5,2,9,-4,7
661,-5,3,8,-4,3,8,-4,8
662,-4,2,6,-3,3,6,-3,7
663,-3,1,3,-2,1,5,-3,5
664,-3,-2,0,-2,-1,4,-3,1
665,-3,-4,-3,-2,-4,3,-3,-3
666,-3,-6,-5,-3,-6,3,-3,-6
667,-3,-7,-7,-4,-8,3,-4,-8
668,-4,-7,-8,-5,-10,4,-4,-10
669,-5,-7,-7,-6,-10,5,-4,-10
670,-5,-5,-6,-6,-11,6,-4,-9
671,-5,-3,-5,-6,-11,7,-4,-8
672,-5,-1,-3,-6,-11,8,-5,-6
673,-6,0,-1,-6,-10,9,-6,-5
674,-6,0,1,-7,-10,9,-7,-4
675,-6,-1,2,-8,-10,9,-8,-4
676,-7,-1,3,-8,-10,9,-9,-5
677,-8,-2,5,-7,-10,8,-9,-5
678,-9,-2,8,-6,-9,7,-9,-4
679,-10,-2,10,-5,-7,5,-8,-4
680,-10,-1,11,-3,-5,4,-7,-3
681,-10,-2,10,-3,-4,2,-7,-2
682,-9,-2,8,-3,-4,2,-7,-2
683,-8,-3,5,-3,-4,2,-6,-2
684,-8,-4,3,-5,-4,2,-6,-2
685,-8,-5,1,-6,-5,2,-6,-3
686,-7,-6,-2,-7,-6,2,-6,-4
687,-7,-8,-5,-9,-8,3,-6,-6
688,-8,-9,-7,-10,-9,5,-6,-8
689,-9,-10,-8,-11,-10,7,-7,-10
690,-9,-10,-8,-12,-11,9,-8,-12
691,-10,-9,-8,-11,-12,9,-9,-12
692,-10,-7,-8,-10,-12,8,-9,-12
693,-10,-5,-8,-9,-12,7,-8,-11
694,-10,-3,-9,-7,-12,5,-7,-10
695,-9,-1,-9,-6,-12,3,-6,-8
696,-8,1,-8,-6,-11,1,-4,-6
697,-6,3,-6,-5,-8,0,-2,-4
698,-5,4,-4,-4,-6,-1,-1,-2
699,-5,5,-1,-3,-4,-2,1,1
700,-4,5,3,-2,-1,-2,1,3
701,-4,4,5,-1,1,-3,1,4
702,-4,3,7,0,3,-4,0,5
703,-4,2,8,1,5,-6,0,6
704,-4,1,7,2,6,-6,-1,6
705,-4,-1,5,2,8,-6,-2,6
706,-3,-2,3,2,8,-4,-3,6
707,-2,-3,1,2,9,-3,-4,6
708,0,-4,0,1,8,-2,-4,5
709,1,-4,-2,-1,6,-2,-5,3
710,2,-5,-5,-3,3,-3,-5,1
711,2,-6,-8,-4,1,-3,-5,-1
712,2,-6,-10,-5,-2,-2,-5,-2
713,1,-6,-12,-5,-4,-1,-4,-3
714,0,-6,-13,-6,-5,0,-4,-4
715,-1,-6,-13,-6,-6,1,-4,-4
716,-2,-5,-13,-6,-7,1,-4,-5
717,-2,-4,-12,-6,-7,0,-4,-5
718,-2,-3,-11,-5,-7,-1,-4,-4
719,-2,-2,-9,-5,-7,-2,-4,-3
720,-2,-2,-8,-4,-6,-3,-4,-2
721,-2,-1,-6,-3,-4,-4,-3,0
722,-2,-1,-3,-1,-2,-4,-3,2
723,-2,0,-1,1,1,-4,-3,4
724,-2,2,2,2,3,-2,-3,6
725,-3,4,5,2,5,0,-3,7
726,-4,5,8,2,6,2,-4,8
727,-5,6,9,2,7,4,-4,8
728,-5,5,10,0,7,4,-5,7
729,-5,4,9,-1,6,4,-5,6
730,-3,2,6,-1,5,3,-4,5
731,0,-1,2,-1,4,1,-2,3
732,3,-4,-3,0,3,-2,1,1
733,6,-5,-7,1,2,-4,3,-1
734,7,-6,-9,1,0,-5,4,-3
735,6,-6,-9,1,-2,-4,4,-4
736,5,-7,-9,0,-4,-3,3,-5
737,4,-8,-8,0,-6,-1,1,-7
738,3,-9,-8,1,-7,-1,0,-8
739,2,-9,-7,2,-8,-1,0,-8
740,2,-9,-6,3,-7,-1,1,-8
741,3,-7,-6,4,-6,-2,2,-6
742,4,-5,-6,4,-5,-3,3,-3
743,5,-3,-5,4,-3,-4,4,-1
744,5,0,-4,4,-1,-4,4,3
745,6,2,-3,3,3,-3,4,6
746,6,5,-1,2,6,-1,4,8
747,5,8,1,2,8,1,4,10
748,5,10,3,2,10,4,4,12
749,5,11,5,3,10,5,4,12
750,4,12,7,4,9,7,5,11
751,3,10,8,4,8,7,5,10
752,3,8,7,5,6,7,4,9
753,3,5,4,5,6,6,4,7
754,4,2,1,4,5,5,4,6
755,5,-1,-3,4,3,2,4,4
756,6,-3,-7,3,1,1,4,2
757,7,-5,-9,3,-2,-1,5,0
758,7,-6,-10,3,-5,-1,5,-3
759,7,-7,-10,3,-8,-1,5,-5
760,6,-7,-9,3,-10,-1,5,-8
761,6,-8,-8,3,-11,0,4,-8
762,5,-7,-6,3,-10,0,3,-7
763,4,-5,-2,4,-8,-1,2,-4
764,4,-3,2,4,-6,-1,1,0
765,3,0,5,5,-3,-1,0,4
766,3,2,7,5,-1,-1,1,7
767,3,4,8,5,2,0,1,9
768,3,6,8,5,4,1,2,11
769,3,7,8,6,7,2,3,13
770,3,8,8,6,8,3,4,15
771,3,10,8,6,10,5,4,17
772,4,10,7,6,11,6,5,18
773,4,10,7,6,12,6,6,19
774,5,11,7,7,13,5,7,18
775,7,10,7,8,13,3,8,18
776,8,10,5,9,13,1,8,17
777,10,8,2,10,12,-2,8,14
778,12,6,-2,10,10,-3,8,12
779,13,3,-4,9,7,-4,9,8
780,14,1,-5,9,4,-3,10,5
781,14,-1,-4,8,1,-2,12,3
782,13,-3,-3,6,-2,-1,12,0
783,12,-5,-3,5,-4,1,12,-1
784,10,-7,-4,4,-6,2,11,-2
785,9,-8,-5,4,-8,3,10,-2
786,9,-9,-5,4,-9,3,10,-1
787,9,-8,-2,6,-10,1,11,0
788,10,-7,1,7,-9,-1,12,1
789,10,-5,3,8,-8,-3,13,1
790,9,-2,4,7,-7,-3,13,1
791,8,1,5,6,-5,-2,12,2
792,7,4,6,4,-2,0,11,4
793,6,6,8,3,2,2,9,7
794,5,7,12,2,6,4,7,11
795,5,9,15,1,11,6,6,16
796,5,11,18,2,15,7,5,21
797,5,13,19,3,18,8,4,24
798,5,14,19,4,20,10,4,26
799,5,15,18,5,21,10,3,26
800,6,14,15,5,19,10,3,23
801,6,10,10,5,17,9,4,18
802,7,5,5,4,12,7,4,12
803,8,0,0,4,7,6,5,6
804,9,-5,-4,4,3,5,6,2
805,9,-8,-8,4,-1,4,6,-1
806,8,-9,-10,5,-4,4,6,-2
807,7,-9,-12,5,-6,4,6,-1
808,7,-9,-14,5,-8,3,5,0
809,7,-9,-16,6,-10,2,5,1
810,7,-11,-16,7,-11,0,6,-1
811,7,-12,-14,7,-12,-1,7,-3
812,7,-13,-11,8,-13,-2,8,-5
813,7,-12,-8,8,-13,-2,9,-7
814,7,-11,-5,8,-13,-2,9,-8
815,7,-9,-2,7,-11,-1,8,-8
816,6,-5,1,7,-9,0,7,-6
817,6,-1,4,7,-6,2,5,-3
818,5,4,8,7,-2,5,3,2
819,4,7,13,7,3,8,0,7
820,4,10,18,6,7,10,-2,11
821,4,11,21,6,10,13,-3,14
822,4,11,23,5,11,15,-4,14
823,4,9,22,4,12,16,-3,12
824,4,6,20,4,12,16,-3,9
825,4,3,17,3,10,15,-2,6
826,4,-1,14,2,9,13,-3,3
827,4,-4,12,1,6,12,-3,2
828,4,-7,8,0,3,10,-4,1
829,3,-10,3,-1,-1,7,-5,-1
830,3,-12,-4,-1,-6,3,-4,-4
831,2,-16,-11,-2,-10,-2,-3,-7
832,1,-18,-18,-2,-15,-7,-2,-11
833,0,-21,-23,-2,-19,-11,-1,-15
834,-1,-22,-25,-2,-22,-14,0,-18
835,-2,-21,-24,-2,-24,-14,0,-18
836,-2,-20,-20,-2,-24,-12,0,-17
837,-2,-17,-16,-2,-23,-9,0,-15
838,-2,-13,-12,-1,-21,-5,-1,-13
839,-2,-9,-9,-1,-18,-2,-1,-10
840,-2,-5,-6,0,-14,2,-1,-7
841,-2,-1,-2,1,-9,5,0,-3
842,-1,4,3,2,-4,8,0,1
843,-1,8,9,3,3,11,1,6
844,1,13,16,3,9,14,1,11
845,2,18,21,3,15,17,2,17
846,4,22,24,4,20,18,3,22
847,7,24,24,6,23,18,5,26
848,9,25,21,7,25,16,6,29
849,11,24,15,9,26,13,8,30
850,12,22,8,9,26,9,10,30
851,13,19,2,9,25,5,10,28
852,13,15,-2,8,23,3,10,25
853,13,10,-4,6,19,2,10,21
854,12,4,-4,6,14,1,10,16
855,12,-1,-5,5,8,0,10,11
856,12,-5,-6,5,2,-2,10,6
857,11,-9,-7,4,-4,-4,10,1
858,10,-11,-8,3,-9,-6,10,-3
859,8,-12,-9,2,-13,-7,9,-5
860,7,-13,-8,1,-15,-7,8,-7
861,6,-12,-7,-1,-15,-6,7,-9
862,5,-11,-5,-2,-14,-4,7,-11
863,4,-9,-2,-3,-11,-1,7,-12
864,3,-7,0,-3,-8,2,6,-10
865,3,-3,3,-2,-4,5,5,-7
866,4,1,5,-1,0,6,3,-2
867,4,5,7,1,4,7,2,4
868,5,10,8,3,7,6,1,10
869,5,14,9,4,10,6,1,14
870,6,16,11,5,13,6,2,18
871,6,17,12,6,16,5,3,19
872,7,17,12,7,18,5,4,20
873,7,14,12,7,19,5,6,19
874,7,11,11,7,19,5,6,18
875,6,7,10,7,17,5,6,16
876,6,2,8,6,14,6,6,12
877,5,-3,7,5,9,6,5,8
878,5,-7,4,4,2,6,4,3
879,5,-11,1,3,-6,6,4,-3
880,5,-15,-3,2,-13,4,5,-9
881,5,-17,-7,2,-20,3,6,-14
882,6,-18,-10,1,-25,3,6,-19
883,6,-18,-13,0,-29,3,6,-22
884,4,-16,-15,-2,-32,5,6,-24
885,3,-14,-16,-3,-33,7,5,-24
886,3,-12,-17,-3,-32,8,4,-23
887,3,-10,-16,-3,-31,9,3,-21
888,4,-7,-14,-2,-28,9,3,-17
889,4,-5,-11,-1,-25,9,4,-13
890,5,-1,-8,1,-20,9,5,-8
891,5,3,-5,3,-16,9,5,-3
892,6,6,-2,4,-11,9,5,4
893,7,9,-1,4,-6,10,6,10
894,8,11,0,5,-1,9,7,15
895,10,12,0,6,3,7,8,19
896,11,12,-1,7,6,5,8,21
897,10,11,-2,7,7,4,8,21
898,9,9,-2,6,7,5,8,18
899,8,6,-2,4,5,8,7,14
900,6,1,-2,2,1,11,5,8
901,5,-5,-2,-1,-4,13,5,1
902,5,-11,-2,-3,-11,14,4,-7
903,4,-17,-3,-4,-19,13,4,-15
904,3,-21,-5,-5,-26,11,3,-22
905,1,-24,-8,-7,-33,8,2,-27
906,-1,-25,-9,-8,-37,5,0,-30
907,-2,-24,-11,-8,-38,4,-1,-30
908,-3,-21,-11,-8,-37,3,-3,-28
909,-4,-17,-10,-9,-34,3,-4,-24
910,-4,-13,-7,-9,-29,4,-4,-19
911,-4,-8,-5,-9,-24,5,-4,-13
912,-3,-4,-3,-9,-19,6,-3,-9
913,-2,-2,-2,-8,-14,6,-1,-6
914,-1,0,-3,-6,-9,4,1,-3
915,0,0,-3,-4,-6,2,2,-1
916,1,0,-4,-2,-3,1,3,1
917,1,-1,-4,1,0,0,4,2
918,1,-2,-3,1,2,0,4,3
919,1,-4,-1,1,3,1,3,3
920,2,-5,-1,1,3,2,3,3
921,2,-7,-1,0,1,3,3,0
922,2,-9,-1,-1,-2,5,2,-3
923,3,-11,-1,-2,-6,7,2,-7
924,3,-12,-1,-4,-11,9,1,-10
925,3,-13,-1,-5,-17,11,0,-14
926,3,-14,-1,-6,-22,12,-1,-17
927,3,-15,-2,-6,-26,11,-2,-19
928,3,-16,-4,-6,-30,9,-2,-21
929,3,-17,-5,-5,-32,8,-2,-23
930,2,-17,-6,-4,-31,7,-1,-23
931,2,-16,-5,-3,-28,6,-1,-22
932,2,-14,-3,-3,-24,6,-1,-20
933,1,-12,0,-4,-20,6,-2,-17
934,0,-10,2,-6,-15,5,-4,-12
935,-1,-7,4,-8,-11,5,-7,-7
936,-2,-5,6,-10,-7,4,-9,-3
937,-2,-4,8,-11,-3,5,-10,-1
938,-2,-4,8,-12,-1,6,-10,0
939,-2,-4,7,-12,2,6,-8,0
940,-1,-4,6,-12,4,7,-7,-1
941,-1,-4,5,-11,6,8,-6,-2
942,0,-4,3,-10,7,7,-6,-2
943,1,-4,1,-9,6,6,-6,-1
944,1,-4,-2,-8,5,4,-6,-2
945,1,-5,-7,-8,1,2,-5,-3
946,2,-7,-11,-7,-3,1,-5,-6
947,2,-8,-13,-8,-7,-1,-4,-9
948,3,-10,-14,-8,-11,-1,-3,-12
949,3,-11,-13,-8,-14,-1,-3,-15
950,2,-12,-11,-9,-15,-2,-3,-17
951,2,-12,-8,-9,-16,-3,-4,-17
952,0,-11,-7,-8,-15,-4,-6,-16
953,-1,-11,-7,-8,-13,-5,-7,-13
954,-2,-10,-7,-7,-11,-7,-8,-10
955,-2,-9,-7,-6,-9,-10,-8,-8
956,-1,-7,-4,-5,-6,-12,-6,-6
957,0,-6,-1,-4,-4,-14,-4,-5
958,1,-6,1,-3,-2,-14,-3,-5
959,1,-5,3,-3,1,-14,-2,-5
960,0,-4,4,-3,4,-12,-2,-4
961,-1,-3,6,-4,7,-8,-3,-2
962,-2,-2,9,-4,10,-3,-4,0
963,-2,-2,12,-4,13,2,-4,2
964,-1,-2,15,-3,14,4,-3,3
965,1,-3,13,-4,14,5,-2,4
966,4,-3,8,-4,13,2,-1,3
967,6,-4,1,-4,12,-1,0,2
968,8,-4,-7,-5,11,-5,2,0
969,9,-3,-11,-5,9,-8,3,-1
970,8,-2,-12,-6,8,-9,3,-2
971,7,-2,-12,-7,5,-10,2,-2
972,5,-2,-11,-7,2,-10,0,-3
973,3,-4,-10,-7,-1,-10,-2,-5
974,2,-6,-9,-7,-4,-10,-3,-8
975,1,-9,-8,-8,-7,-10,-3,-12
976,1,-12,-7,-9,-8,-11,-3,-16
977,1,-14,-7,-9,-9,-12,-3,-19
978,1,-14,-5,-9,-7,-12,-2,-18
979,1,-12,-3,-9,-5,-13,-3,-16
980,1,-10,-1,-8,-1,-13,-3,-11
981,0,-8,3,-7,3,-12,-5,-7
982,-1,-7,6,-7,6,-11,-6,-4
983,-2,-7,7,-7,8,-9,-8,-3
984,-3,-8,7,-8,9,-7,-8,-3
985,-3,-9,5,-8,11,-4,-8,-4
986,-2,-8,4,-9,12,-2,-7,-3
987,-2,-7,4,-9,14,-1,-6,-2
988,-2,-5,4,-9,17,1,-6,0
989,-2,-2,5,-9,18,1,-6,3
990,-2,-1,5,-8,17,2,-6,5
991,-1,-1,5,-8,16,2,-6,5
992,0,-2,3,-8,13,1,-6,4
993,1,-4,1,-7,9,0,-5,1
994,1,-6,-3,-7,5,-3,-4,-2
995,2,-8,-6,-6,2,-6,-4,-5
996,1,-9,-8,-4,-1,-9,-4,-7
997,1,-9,-9,-3,-2,-11,-4,-8
998,1,-9,-10,-2,-3,-12,-4,-8
999,1,-8,-11,-2,-3,-12,-4,-7
1000,1,-7,-12,-2,-2,-11,-5,-6
1001,1,-6,-12,-3,-1,-11,-5,-4
1002,1,-4,-11,-3,0,-11,-5,-3
1003,1,-4,-8,-2,1,-10,-4,-2
1004,2,-3,-3,0,3,-9,-4,-1
1005,3,-3,2,1,5,-7,-3,1
1006,4,-3,7,2,7,-5,-2,1
1007,5,-3,11,2,10,-2,0,3
1008,6,-2,13,2,13,2,1,4
1009,7,0,13,1,17,4,2,6
1010,8,2,12,-1,20,5,3,9
1011,9,3,10,-1,22,5,4,11
1012,10,4,8,-2,22,5,4,13
1013,9,4,6,-3,20,5,3,13
1014,9,4,5,-3,17,5,2,11
1015,8,3,4,-3,14,6,1,9
1016,7,2,3,-4,11,6,0,7
1017,6,2,1,-4,8,5,-1,5
1018,5,2,-1,-5,5,4,-1,3
1019,5,1,-2,-6,3,2,-1,2
1020,4,1,-2,-6,2,-1,-1,1
1021,5,0,-2,-5,1,-4,-1,0
1022,5,-1,-2,-4,0,-6,-1,-1
1023,6,-2,-1,-3,0,-7,-1,-3
1024,7,-4,0,-2,-1,-8,-1,-4
1025,7,-6,1,-1,-1,-9,-1,-6
1026,7,-7,3,-2,-1,-8,-1,-8
1027,6,-8,5,-2,0,-7,-1,-10
1028,6,-9,6,-3,0,-6,-1,-12
1029,6,-10,4,-4,1,-6,-1,-13
1030,7,-11,3,-4,2,-5,-1,-12
1031,8,-11,1,-4,3,-4,0,-11
1032,9,-11,1,-3,6,-3,1,-9
1033,11,-9,3,-2,9,-2,2,-5
1034,11,-7,5,-1,12,-1,3,-1
1035,12,-3,6,-1,15,0,4,3
1036,12,-1,7,0,17,0,4,5
1037,12,2,6,1,17,-1,4,7
1038,11,3,5,1,15,-1,4,7
1039,10,3,5,1,14,0,3,7
1040,10,3,5,0,12,1,3,7
1041,10,3,4,-1,10,2,2,6
1042,10,2,3,-1,7,1,2,6
1043,9,2,2,-1,4,-2,2,5
1044,9,1,1,-2,2,-5,1,3
1045,8,0,0,-2,0,-8,0,1
1046,8,-2,-1,-2,-2,-11,-1,-1
1047,7,-4,-3,-1,-2,-13,0,-3
1048,7,-5,-5,0,-2,-14,0,-5
1049,7,-6,-6,0,-1,-15,1,-6
1050,7,-7,-6,-1,-1,-15,0,-6
1051,6,-8,-6,-2,1,-15,-1,-7
1052,5,-9,-4,-3,1,-15,-2,-8
1053,4,-9,-4,-4,3,-14,-3,-8
1054,4,-8,-3,-5,4,-14,-3,-8
1055,4,-7,-4,-5,6,-13,-3,-8
1056,4,-5,-4,-5,8,-12,-3,-6
1057,4,-3,-4,-5,10,-10,-2,-4
1058,4,-2,-3,-5,12,-8,-3,-2
1059,3,0,-2,-6,14,-5,-3,1
1060,3,1,-1,-6,14,-1,-3,2
1061,4,2,1,-6,14,2,-2,4
1062,5,3,3,-5,13,5,-2,5
1063,6,4,5,-4,11,6,-2,5
1064,6,3,6,-3,9,5,-2,5
1065,6,2,6,-2,5,2,-2,2
1066,4,-1,5,-2,1,-1,-2,-2
1067,3,-4,3,-2,-3,-3,-2,-6
1068,2,-6,1,-3,-6,-4,-3,-10
1069,1,-8,-1,-4,-8,-6,-3,-12
1070,2,-7,-3,-5,-9,-6,-4,-13
1071,3,-7,-4,-5,-7,-7,-3,-11
1072,4,-6,-4,-4,-5,-8,-3,-10
1073,5,-5,-3,-3,-3,-8,-1,-8
1074,5,-4,-1,-2,-2,-7,0,-7
1075,4,-4,1,-2,-1,-6,0,-8
1076,2,-5,2,-2,-1,-5,-1,-9
1077,1,-7,1,-3,0,-6,-2,-9
1078,1,-8,-1,-4,1,-6,-2,-9
1079,2,-8,-3,-4,3,-7,-2,-7
1080,4,-7,-5,-3,5,-8,-1,-4
1081,6,-5,-4,-1,8,-6,1,0
1082,8,-3,-1,1,11,-3,4,4
1083,10,0,4,3,13,0,6,8
1084,11,2,8,5,14,4,8,12
1085,11,4,11,5,14,6,8,13
1086,10,4,12,5,13,7,8,13
1087,9,3,12,5,10,7,8,11
1088,8,1,11,5,7,4,7,8
1089,8,-1,8,4,3,1,6,4
1090,8,-3,5,4,-1,-1,6,2
1091,8,-4,3,4,-4,-3,6,0
1092,8,-6,3,4,-5,-4,7,-2
1093,8,-6,2,4,-5,-4,7,-3
1094,7,-6,3,4,-5,-5,6,-3
1095,6,-6,4,3,-4,-4,5,-4
1096,4,-7,5,2,-3,-4,4,-5
1097,3,-7,6,2,-2,-4,3,-5
1098,4,-7,6,3,-1,-4,3,-4
1099,4,-7,7,3,0,-3,4,-2
1100,5,-6,6,3,2,-3,5,-1
1101,6,-5,4,3,3,-4,6,1
1102,6,-4,1,2,5,-4,6,2
1103,5,-3,-2,1,6,-5,6,2
1104,5,-4,-3,1,7,-5,6,1
1105,4,-5,-2,1,8,-4,6,0
1106,4,-4,1,2,9,-3,6,1
1107,4,-3,3,2,9,-1,6,2
1108,4,0,5,2,10,1,5,4
1109,3,2,5,2,9,2,5,5
1110,2,4,4,1,8,2,5,5
1111,2,5,2,1,6,0,4,5
1112,3,6,0,1,4,-3,4,5
1113,4,5,-3,1,3,-6,4,4
1114,4,4,-5,1,2,-8,4,3
1115,4,4,-6,0,2,-8,4,3
1116,4,3,-6,0,1,-8,4,2
1117,3,2,-5,1,1,-8,4,1
1118,3,2,-3,1,2,-7,4,1
1119,3,2,-1,1,4,-7,3,3
1120,2,3,0,1,5,-6,3,4
1121,2,3,0,1,6,-6,3,5
1122,2,1,-2,2,6,-7,3,5
1123,3,-1,-3,3,5,-9,3,4
1124,4,-3,-5,3,4,-10,3,3
1125,5,-5,-6,3,3,-10,3,2
1126,5,-5,-6,3,3,-9,3,2
1127,5,-5,-5,3,4,-8,3,3
1128,4,-3,-4,2,4,-7,2,4
1129,3,-2,-2,2,5,-5,0,5
1130,2,1,-1,1,6,-4,-1,6
1131,2,3,1,0,7,-2,-3,8
1132,2,5,2,0,9,-1,-4,10
1133,3,7,4,0,10,0,-4,12
1134,3,8,5,1,11,-1,-4,14
1135,3,8,6,0,11,-2,-4,15
1136,3,9,6,-1,10,-3,-4,14
1137,2,8,6,-2,8,-4,-4,12
1138,1,8,5,-4,6,-4,-5,10
1139,1,6,3,-5,3,-3,-6,6
1140,0,4,1,-5,1,-3,-6,3
1141,0,2,-1,-4,-2,-4,-6,0
1142,0,-1,-3,-3,-4,-6,-5,-3
1143,1,-3,-4,-1,-5,-7,-3,-5
1144,1,-5,-3,1,-4,-7,-2,-7
1145,2,-6,0,2,-3,-7,-1,-7
1146,3,-6,3,3,-1,-6,0,-6
1147,3,-6,4,4,2,-6,0,-5
1148,3,-4,5,4,3,-6,1,-3
1149,4,-3,5,5,5,-6,2,-1
1150,4,-2,4,6,6,-6,3,0
1151,4,0,3,7,7,-5,5,2
1152,4,1,2,7,8,-3,6,3
1153,4,2,1,7,9,0,5,4
1154,3,2,0,5,8,3,4,5
1155,2,4,0,3,7,5,2,6
1156,1,5,-1,2,6,5,0,8
1157,1,6,-1,1,5,4,-1,9
1158,1,7,0,1,5,1,-1,10
1159,2,7,0,2,5,-4,1,11
1160,3,7,-1,3,6,-8,4,11
1161,4,7,-3,4,6,-11,6,10
1162,6,7,-4,5,7,-13,7,10
1163,7,7,-5,5,7,-13,7,10
1164,7,7,-6,4,8,-11,6,9
1165,8,6,-6,3,7,-9,5,7
1166,8,4,-4,2,6,-6,4,5
1167,8,1,-1,1,5,-4,3,3
1168,7,-3,0,1,4,-4,2,1
1169,7,-6,-2,0,4,-4,2,-2
1170,6,-9,-5,0,4,-6,2,-3
1171,5,-9,-8,0,4,-8,1,-3
1172,5,-8,-10,-1,5,-8,1,-1
1173,4,-6,-9,-2,7,-8,0,2
1174,4,-3,-7,-2,9,-7,-1,5
1175,3,-1,-4,-3,11,-6,-2,8
1176,2,2,-2,-3,12,-5,-3,10
1177,0,3,-1,-4,13,-4,-4,11
1178,-2,3,0,-4,12,-4,-5,10
1179,-3,3,2,-3,10,-4,-5,9
1180,-4,2,3,-3,8,-3,-5,8
1181,-4,2,3,-3,7,-1,-5,7
1182,-3,2,2,-4,6,1,-5,6
1183,-2,4,1,-4,5,1,-6,7
1184,-1,5,-1,-4,4,1,-5,8
1185,0,6,-2,-4,3,-1,-5,8
1186,1,6,-3,-3,2,-2,-4,8
1187,1,5,-4,-1,1,-4,-2,6
1188,1,2,-7,1,-1,-7,-1,4
1189,1,-1,-10,2,-3,-10,-1,1
1190,2,-3,-12,3,-5,-12,0,-2
1191,2,-5,-13,4,-5,-14,0,-4
1192,2,-6,-13,4,-6,-14,1,-6
1193,2,-7,-11,4,-6,-13,2,-8
1194,2,-8,-9,4,-5,-11,3,-10
1195,2,-9,-7,3,-3,-8,3,-11
1196,1,-9,-6,2,0,-5,3,-10
1197,1,-8,-5,1,3,-3,3,-8
1198,-1,-5,-4,-1,6,-1,2,-4
1199,-2,-2,-4,-3,9,0,1,1
1200,-3,2,-3,-4,11,1,-1,5
1201,-4,4,-2,-6,13,2,-2,7
1202,-4,6,-1,-6,13,1,-3,9
1203,-4,7,0,-6,13,0,-3,10
1204,-3,7,0,-4,12,-1,-2,10
1205,-2,8,-2,-2,10,-3,-1,10
1206,-1,8,-5,-1,8,-4,0,9
1207,0,8,-8,0,5,-6,1,7
1208,0,8,-11,0,2,-7,1,5
1209,0,6,-13,0,-2,-8,1,1
1210,-1,4,-12,0,-6,-8,0,-4
1211,-2,0,-10,0,-9,-8,-1,-8
1212,-3,-4,-7,-1,-11,-7,-1,-12
1213,-5,-8,-5,-1,-12,-6,-2,-16
1214,-5,-12,-5,-2,-12,-7,-3,-19
1215,-5,-15,-6,-2,-11,-9,-3,-21
1216,-4,-17,-8,-2,-11,-11,-3,-22
1217,-3,-17,-9,-2,-10,-12,-2,-21
1218,-2,-16,-9,-2,-9,-11,-2,-19
1219,-2,-13,-8,-2,-8,-9,-2,-16
1220,-1,-11,-8,-3,-6,-6,-2,-12
1221,-2,-8,-8,-5,-4,-4,-3,-9
1222,-2,-5,-9,-6,-2,-2,-5,-5
1223,-2,-1,-9,-6,2,0,-6,-1
1224,-2,2,-6,-5,5,1,-7,3
1225,-1,5,-3,-4,9,3,-7,7
1226,0,8,2,-3,12,5,-7,11
1227,0,11,6,-3,12,6,-7,13
1228,-1,12,7,-3,11,6,-7,12
1229,-2,11,7,-3,7,5,-7,9
1230,-3,8,4,-4,2,3,-6,5
1231,-2,5,-2,-3,-3,-1,-5,-1
1232,-1,1,-7,-2,-7,-4,-4,-6
1233,1,-1,-9,-1,-10,-7,-3,-9
1234,1,-2,-9,0,-11,-8,-2,-10
1235,2,-3,-7,1,-10,-8,-2,-10
1236,2,-4,-6,2,-9,-9,-1,-10
1237,2,-6,-5,2,-8,-9,0,-10
1238,1,-9,-6,2,-7,-11,2,-12
1239,1,-11,-7,3,-6,-12,4,-13
1240,2,-12,-7,3,-5,-13,5,-13
1241,3,-13,-6,2,-4,-14,6,-12
1242,4,-12,-6,2,-3,-14,6,-10
1243,5,-10,-6,2,-2,-12,6,-7
1244,6,-7,-6,2,-1,-10,5,-4
1245,6,-3,-7,2,0,-7,4,0
1246,6,1,-5,3,1,-3,3,4
1247,6,4,0,3,4,1,3,8
1248,5,7,4,5,6,3,3,11
1249,5,9,7,6,9,4,3,13
1250,4,10,8,6,10,4,2,14
1251,4,10,6,6,10,3,1,14
1252,4,10,4,5,9,3,1,13
1253,4,10,3,4,7,3,1,10
1254,4,9,2,3,4,3,1,7
1255,3,7,3,2,1,3,0,3
1256,3,4,2,1,-2,2,-1,-1
1257,2,1,1,0,-4,0,-2,-4
1258,1,-3,-1,0,-5,-3,-3,-7
1259,1,-6,-2,-1,-6,-6,-4,-9
1260,1,-8,-3,-1,-6,-9,-4,-10
1261,1,-9,-3,0,-5,-10,-3,-11
1262,2,-9,-3,1,-4,-11,-2,-11
1263,2,-9,-3,2,-2,-11,-1,-9
1264,1,-8,-4,2,-1,-11,-1,-8
1265,1,-6,-5,1,1,-10,-2,-5
1266,0,-4,-5,0,3,-8,-3,-2
1267,-1,-2,-5,-1,5,-6,-4,1
1268,-1,0,-3,-1,6,-3,-4,5
1269,-2,2,-1,-1,6,0,-4,8
1270,-2,3,2,0,7,3,-4,11
1271,-2,4,4,1,8,6,-3,13
1272,-1,6,7,2,9,9,-3,16
1273,0,6,10,2,10,12,-3,17
1274,1,7,13,2,10,15,-4,17
1275,1,7,16,1,10,18,-4,15
1276,2,7,19,1,8,20,-4,12
1277,2,7,21,-1,6,22,-4,9
1278,1,5,20,-2,3,23,-4,5
1279,0,3,18,-3,1,22,-4,1
1280,-1,0,13,-4,-1,18,-4,-3
1281,-2,-3,9,-4,-3,13,-3,-5
1282,-2,-5,6,-4,-3,7,-3,-7
1283,-1,-6,2,-3,-3,2,-2,-7
1284,1,-7,-1,-2,-2,-3,-1,-7
1285,3,-8,-2,-1,-1,-6,0,-7
1286,5,-9,-4,1,1,-8,2,-7
1287,7,-10,-5,2,1,-9,3,-7
1288,8,-10,-5,2,2,-10,4,-7
1289,8,-9,-4,3,2,-9,5,-6
1290,7,-7,-2,3,2,-8,6,-5
1291,6,-5,0,3,2,-6,6,-3
1292,6,-4,0,3,1,-5,7,-2
1293,6,-3,-1,4,1,-4,7,-1
1294,6,-3,-2,4,2,-3,8,0
1295,7,-2,-3,5,3,-2,7,1
1296,7,0,-3,5,4,1,6,3
1297,5,3,-1,5,5,3,4,3
1298,4,5,2,3,5,5,2,3
1299,3,6,4,2,4,6,1,2
1300,2,6,4,0,2,6,-1,1
1301,1,5,3,-1,0,6,-1,-1
1302,2,3,2,-2,-1,6,-1,-2
1303,2,0,2,-2,-2,5,-1,-4
1304,3,-3,2,-1,-3,2,-1,-5
1305,3,-4,3,0,-2,-2,0,-5
1306,3,-5,3,1,-1,-5,0,-5
1307,4,-5,2,2,2,-8,1,-3
1308,4,-5,1,3,3,-10,1,-2
1309,4,-5,-1,4,5,-11,1,-1
1310,4,-5,-4,4,5,-13,0,-1
1311,3,-5,-7,4,5,-14,-1,-2
1312,2,-5,-9,4,4,-16,-2,-3
1313,2,-5,-9,3,4,-16,-3,-4
1314,1,-5,-7,3,4,-15,-3,-5
1315,1,-4,-3,1,5,-12,-3,-6
1316,0,-3,1,-1,6,-9,-3,-6
1317,-1,-2,2,-3,6,-5,-4,-5
1318,-2,-1,1,-5,6,-1,-5,-5
1319,-2,-1,-1,-6,5,2,-5,-4
1320,-2,0,-1,-6,4,4,-5,-5
1321,-3,0,2,-6,3,6,-5,-6
1322,-3,0,7,-6,2,9,-5,-9
1323,-3,-1,11,-7,1,11,-5,-12
1324,-3,-2,13,-8,-1,13,-5,-15
1325,-3,-3,12,-9,-3,13,-6,-17
1326,-2,-5,11,-9,-4,12,-7,-17
1327,-1,-6,9,-8,-5,9,-7,-17
1328,0,-7,7,-6,-6,6,-6,-15
1329,1,-8,5,-4,-7,3,-4,-14
1330,2,-9,4,-2,-6,0,-2,-13
1331,4,-11,2,1,-6,-3,0,-13
1332,5,-11,-2,2,-5,-6,3,-12
1333,6,-12,-7,3,-5,-8,4,-12
1334,6,-12,-13,3,-5,-11,4,-12
1335,6,-13,-18,1,-5,-13,3,-12
1336,5,-13,-21,-1,-5,-14,1,-12
1337,4,-13,-20,-4,-4,-15,-1,-12
1338,4,-13,-16,-6,-3,-13,-2,-13
1339,3,-12,-10,-8,-2,-10,-2,-13
1340,3,-10,-5,-9,-1,-7,-3,-13
1341,2,-9,-1,-10,-1,-3,-4,-12
1342,0,-6,1,-11,0,0,-4,-12
1343,-2,-4,2,-11,1,3,-5,-11
1344,-3,-1,2,-11,2,5,-5,-9
1345,-3,2,2,-10,3,6,-4,-8
1346,-3,4,3,-9,3,7,-4,-6
1347,-3,4,4,-8,3,8,-3,-6
1348,-3,3,6,-6,2,8,-2,-6
1349,-2,2,7,-4,2,8,-2,-6
1350,-2,-1,9,-3,2,5,-2,-7
1351,-3,-4,9,-2,2,1,-2,-7
1352,-3,-6,8,-2,2,-4,-3,-7
1353,-3,-8,4,-2,1,-8,-3,-7
1354,-3,-9,-2,-2,1,-11,-4,-7
1355,-3,-9,-7,-2,2,-13,-4,-5
1356,-2,-9,-11,-1,2,-14,-4,-3
1357,-2,-8,-13,-1,3,-13,-5,-1
1358,-2,-8,-13,-1,3,-13,-5,1
1359,-1,-8,-11,-1,3,-13,-5,2
1360,-1,-8,-10,-1,3,-12,-4,2
1361,-1,-8,-11,-2,3,-10,-4,3
1362,-2,-7,-12,-2,2,-8,-4,4
1363,-2,-4,-12,-2,3,-5,-4,6
1364,-2,-2,-10,-3,3,-3,-4,8
1365,-2,1,-7,-3,4,0,-4,9
1366,-3,3,-2,-4,5,3,-5,10
1367,-3,5,2,-4,5,6,-6,10
1368,-3,6,5,-4,4,8,-6,9
1369,-3,6,6,-4,3,10,-7,9
1370,-4,6,6,-3,3,11,-7,8
1371,-4,6,7,-3,2,12,-7,7
1372,-5,6,7,-3,2,12,-6,7
1373,-5,4,7,-2,2,10,-6,6
1374,-6,2,6,-1,1,8,-6,4
1375,-5,-2,4,-1,0,4,-5,2
1376,-5,-6,3,0,-2,0,-5,-1
1377,-5,-8,3,0,-3,-4,-4,-3
1378,-4,-9,2,-1,-3,-6,-3,-4
1379,-3,-10,0,-1,-2,-9,-3,-4
1380,-3,-9,-3,-1,-2,-10,-3,-3
1381,-2,-8,-6,-1,-1,-10,-3,-2
1382,-1,-7,-8,-1,-1,-9,-3,1
1383,0,-5,-9,-1,0,-7,-3,3
1384,0,-4,-7,-1,1,-5,-3,4
1385,0,-3,-6,-1,0,-4,-4,5
1386,0,-2,-6,-2,0,-3,-4,4
1387,-1,-2,-7,-3,-2,-3,-4,3
1388,-1,-2,-8,-3,-3,-2,-4,1
1389,-1,-1,-7,-2,-3,-1,-3,1
1390,-2,0,-5,-2,-2,2,-3,2
1391,-2,1,-2,-1,-1,4,-3,2
1392,-2,1,1,-1,-1,6,-3,3
1393,-2,2,1,-1,-1,7,-3,3
1394,-2,2,0,-1,-1,7,-2,1
1395,-3,1,-1,-2,-3,8,-2,-1
1396,-4,0,-1,-2,-4,8,-3,-3
1397,-4,-2,2,-3,-4,9,-3,-5
1398,-5,-3,4,-4,-5,8,-4,-7
1399,-5,-4,4,-4,-5,5,-3,-8
1400,-5,-5,3,-4,-4,1,-3,-8
1401,-4,-5,-1,-4,-4,-4,-2,-8
1402,-3,-4,-6,-3,-3,-8,-1,-8
1403,-2,-4,-11,-2,-2,-11,1,-7
1404,-1,-4,-15,-1,-1,-13,2,-6
1405,0,-4,-18,-1,0,-14,3,-5
1406,0,-4,-20,-1,1,-13,3,-4
1407,0,-4,-20,-1,1,-12,3,-2
1408,0,-3,-19,-1,1,-11,3,-1
1409,0,-2,-17,-1,0,-9,3,0
1410,1,-1,-16,-1,-1,-8,3,0
1411,2,-1,-14,-1,-1,-7,3,0
1412,2,-1,-13,-2,-2,-7,3,-1
1413,2,0,-11,-2,-3,-5,2,-1
1414,2,0,-9,-2,-3,-1,1,-2
1415,1,1,-7,-2,-5,4,0,-2
1416,1,2,-5,-1,-7,10,-1,-1
1417,0,3,-2,-1,-10,15,-1,-1
1418,-1,4,1,-2,-12,19,-2,0
1419,-2,4,3,-4,-14,19,-3,0
1420,-2,4,2,-5,-16,18,-5,0
1421,-2,2,0,-6,-16,15,-6,-1
1422,-3,0,-3,-7,-17,12,-6,-2
1423,-3,-2,-7,-7,-17,9,-6,-3
1424,-3,-5,-12,-6,-16,7,-6,-5
1425,-3,-7,-16,-6,-16,5,-5,-7
1426,-2,-8,-19,-5,-14,3,-4,-7
1427,-2,-8,-20,-5,-13,2,-3,-6
1428,-2,-7,-20,-5,-12,2,-3,-5
1429,-3,-5,-19,-6,-10,3,-3,-2
1430,-3,-2,-16,-6,-9,5,-3,1
1431,-3,1,-14,-6,-7,6,-3,5
1432,-2,4,-14,-5,-5,5,-3,8
1433,-1,7,-16,-5,-4,5,-3,11
1434,0,9,-17,-4,-3,4,-3,13
1435,2,10,-16,-3,-2,5,-3,14
1436,2,10,-12,-2,-2,7,-3,13
1437,2,9,-8,-2,-3,9,-3,13
1438,2,9,-4,-1,-3,11,-3,12
1439,2,8,-3,-1,-4,13,-3,11
1440,2,8,-3,-2,-4,15,-4,10
1441,1,8,-4,-3,-4,16,-4,9
1442,1,7,-3,-4,-4,18,-4,8
1443,0,7,-1,-5,-4,18,-4,8
1444,0,7,1,-5,-4,18,-3,7
1445,0,6,1,-5,-4,17,-3,6
1446,1,4,0,-5,-4,13,-2,5
1447,1,2,-2,-5,-4,10,-2,4
1448,0,0,-4,-5,-4,6,-3,3
1449,-1,-1,-7,-5,-4,2,-4,2
1450,-3,-1,-10,-5,-5,-1,-5,2
1451,-3,-1,-12,-4,-4,-3,-6,3
1452,-3,0,-13,-2,-4,-4,-6,5
1453,-3,0,-13,0,-3,-5,-6,6
1454,-3,1,-12,2,-1,-5,-6,9
1455,-3,3,-10,3,0,-5,-7,11
1456,-3,4,-7,3,2,-4,-7,13
1457,-3,5,-4,3,3,-3,-8,14
1458,-2,7,-1,2,5,-1,-8,14
1459,-2,7,2,0,6,1,-7,13
1460,-2,8,4,-2,7,4,-7,12
1461,-1,8,4,-4,7,6,-6,11
1462,-1,9,4,-4,6,8,-6,11
1463,-1,10,5,-3,5,10,-6,11
1464,-1,11,8,-2,5,12,-5,12
1465,-1,12,12,0,6,14,-4,13
1466,0,12,16,1,6,16,-3,14
1467,0,12,18,2,7,17,-2,14
1468,0,10,18,1,7,17,-2,13
1469,0,8,16,0,6,15,-3,11
1470,0,6,11,-1,5,13,-4,9
1471,0,4,6,-1,3,9,-4,7
1472,1,2,1,1,0,6,-3,4
1473,2,1,-5,2,-2,2,-1,2
1474,3,0,-9,4,-3,0,1,2
1475,4,-1,-11,5,-3,-1,3,2
1476,5,0,-11,6,-2,-1,5,4
1477,5,1,-9,6,1,-1,4,6
1478,4,3,-6,5,4,0,3,9
1479,3,6,-2,4,7,2,2,12
1480,2,9,4,3,10,4,1,14
1481,1,11,10,2,12,6,1,15
1482,1,12,14,2,14,9,1,16
1483,0,13,16,2,15,12,0,17
1484,0,13,17,2,16,14,-1,18
1485,-1,14,18,2,18,16,-1,19
1486,-1,15,18,2,19,18,-2,21
1487,-1,16,18,2,19,19,-3,22
1488,1,17,18,3,19,19,-3,22
1489,2,17,17,3,18,18,-3,22
1490,2,15,13,3,16,16,-3,20
1491,2,13,9,3,13,14,-3,16
1492,1,9,6,3,9,11,-3,12
1493,0,4,3,1,4,8,-4,7
1494,-1,-2,1,0,-1,5,-5,2
1495,-1,-7,-2,-1,-6,2,-6,-3
1496,-1,-11,-5,-2,-10,0,-7,-6
1497,-1,-13,-7,-2,-12,-2,-7,-7
1498,0,-14,-8,-2,-13,-4,-7,-7
1499,0,-13,-8,-2,-12,-5,-8,-6
1500,-1,-12,-8,-2,-11,-6,-8,-4
1501,-2,-10,-6,-2,-9,-6,-9,-2
1502,-3,-8,-4,-2,-7,-5,-10,0
1503,-3,-6,-1,-2,-5,-3,-10,1
1504,-3,-4,3,-1,-2,0,-9,2
1505,-2,-1,7,-1,1,3,-8,3
1506,-2,1,11,-1,4,5,-7,5
1507,-2,4,14,-1,8,6,-7,7
1508,-2,6,15,-2,12,7,-8,10
1509,-3,9,15,-3,15,8,-9,12
1510,-3,12,14,-3,18,8,-10,16
1511,-3,14,13,-2,20,9,-10,18
1512,-2,15,13,-1,21,10,-8,19
1513,0,16,12,1,20,11,-6,19
1514,2,16,11,3,18,11,-3,19
1515,3,14,10,4,16,11,-1,17
1516,3,11,10,5,13,11,1,15
1517,4,8,9,5,11,10,1,12
1518,4,4,7,5,8,8,1,11
1519,4,1,4,5,5,5,1,9
1520,4,-2,-1,4,1,2,1,6
1521,4,-4,-4,4,-3,-1,2,3
1522,3,-6,-8,5,-7,-3,2,1
1523,3,-6,-11,5,-10,-3,3,-1
1524,3,-6,-13,6,-12,-3,3,-1
1525,3,-3,-14,5,-12,-1,2,0
1526,3,0,-13,5,-11,1,2,2
1527,3,3,-11,5,-10,2,2,5
1528,3,5,-7,5,-8,3,2,7
1529,3,6,-4,4,-6,4,2,8
1530,3,6,-1,4,-5,4,2,8
1531,2,5,0,4,-3,3,2,8
1532,1,5,1,4,-2,2,2,9
1533,0,4,1,4,0,1,1,10
1534,-1,4,1,3,2,-1,0,11
1535,-2,4,1,2,4,-2,-1,12
1536,-2,4,0,0,6,-2,-3,13
1537,-2,5,0,-2,7,1,-3,13
1538,-1,5,1,-3,6,4,-4,12
1539,0,5,3,-4,5,8,-4,10
1540,1,3,5,-5,1,11,-5,7
1541,0,1,5,-5,-4,12,-5,3
1542,-2,-2,3,-5,-10,11,-6,-2
1543,-3,-5,0,-5,-15,7,-7,-6
1544,-5,-9,-3,-4,-19,3,-8,-10
1545,-5,-11,-5,-3,-21,-1,-8,-12
1546,-5,-13,-8,-2,-21,-4,-8,-14
1547,-4,-13,-9,-1,-21,-5,-7,-15
1548,-3,-13,-10,-1,-20,-5,-6,-14
1549,-3,-12,-11,-1,-19,-4,-6,-13
1550,-2,-10,-11,-1,-18,-3,-5,-10
1551,-2,-8,-11,0,-16,-2,-5,-8
1552,-2,-6,-10,0,-13,-2,-5,-5
1553,-3,-3,-10,1,-10,-3,-5,-2
1554,-3,-2,-11,2,-6,-6,-4,2
1555,-3,0,-11,3,-2,-9,-3,5
1556,-2,1,-11,5,2,-12,-1,8
1557,-1,2,-9,6,5,-13,0,10
1558,1,2,-5,7,7,-13,1,12
1559,2,3,-1,7,10,-10,1,13
1560,3,4,3,6,12,-7,2,14
1561,3,5,5,5,13,-3,2,14
1562,2,6,5,3,13,-1,1,13
1563,1,5,3,2,11,-1,1,11
1564,0,3,-2,0,7,-2,1,7
1565,-1,-1,-7,-1,1,-4,0,1
1566,-2,-5,-11,-3,-6,-6,-1,-7
1567,-3,-9,-14,-4,-12,-5,-2,-14
1568,-3,-13,-17,-5,-18,-4,-3,-21
1569,-3,-16,-18,-6,-22,-3,-3,-27
1570,-2,-19,-18,-6,-25,-2,-3,-30
1571,-1,-20,-17,-6,-27,-1,-2,-32
1572,1,-20,-16,-6,-26,0,-2,-31
1573,1,-19,-13,-5,-24,0,-2,-27
1574,0,-15,-10,-5,-21,-1,-2,-22
1575,-1,-11,-7,-3,-16,-3,-1,-15
1576,-1,-6,-6,-1,-11,-6,-1,-8
1577,-1,-2,-5,3,-6,-10,0,-1
1578,-1,2,-6,5,-2,-13,1,6
1579,-1,4,-6,8,1,-16,2,10
1580,-1,6,-5,9,4,-17,1,14
1581,-1,8,-3,10,6,-16,0,17
1582,-2,10,-2,9,9,-14,-2,18
1583,-2,11,0,8,11,-11,-3,19
1584,-2,13,2,7,12,-7,-4,19
1585,-2,14,5,6,13,-2,-4,18
1586,-1,14,7,5,13,4,-4,16
1587,-1,13,8,4,12,9,-5,12
1588,-2,9,8,2,9,12,-5,7
1589,-2,5,6,1,3,13,-5,0
1590,-3,-2,3,0,-3,12,-4,-8
1591,-2,-8,0,-1,-10,10,-3,-16
1592,-2,-14,-2,-1,-17,8,-2,-23
1593,0,-19,-4,0,-21,6,0,-27
1594,2,-21,-7,1,-24,3,1,-28
1595,5,-21,-12,2,-24,-2,3,-26
1596,8,-19,-18,4,-22,-7,5,-21
1597,10,-14,-24,6,-19,-12,7,-14
1598,12,-8,-29,9,-13,-17,9,-5
1599,13,1,-31,13,-7,-21,11,6
1600,13,9,-30,17,0,-24,13,18
1601,14,17,-27,20,7,-27,14,28
1602,14,23,-21,22,14,-28,14,37
1603,13,27,-15,23,21,-27,14,43
1604,12,27,-8,22,26,-25,13,45
1605,11,26,-1,20,29,-20,12,43
1606,9,24,7,17,30,-13,11,37
1607,7,21,14,13,29,-3,10,29
1608,5,18,22,9,26,7,8,21
1609,3,14,28,5,22,17,6,13
1610,2,11,31,1,18,25,3,6
1611,1,7,31,-3,13,31,0,1
1612,-1,3,29,-5,8,33,-3,-4
1613,-3,-3,24,-8,2,32,-5,-9
1614,-4,-8,18,-9,-5,28,-6,-14
1615,-5,-13,12,-11,-13,23,-6,-19
1616,-6,-17,7,-12,-19,18,-6,-24
1617,-6,-20,4,-12,-24,12,-6,-27
1618,-6,-21,1,-11,-27,7,-5,-29
1619,-7,-21,-3,-9,-28,2,-5,-27
1620,-7,-19,-7,-7,-27,-2,-5,-24
1621,-6,-16,-10,-5,-24,-5,-5,-18
1622,-5,-11,-13,-2,-21,-8,-4,-11
1623,-3,-6,-14,1,-16,-10,-4,-3
1624,-2,0,-13,3,-11,-11,-4,5
1625,-2,5,-12,4,-5,-12,-4,11
1626,-2,10,-9,4,1,-12,-4,16
1627,-2,13,-6,3,5,-10,-4,17
1628,-2,14,-1,1,8,-7,-4,16
1629,-2,14,5,-1,10,-2,-4,13
1630,-2,13,10,-2,10,4,-4,9
1631,-1,11,15,-3,10,11,-4,5
1632,-1,10,19,-3,10,17,-3,2
1633,-1,9,22,-4,11,22,-3,1
1634,-1,9,23,-4,11,25,-3,2
1635,0,8,23,-5,10,26,-3,3
1636,1,7,21,-5,8,25,-2,3
1637,1,4,18,-5,5,23,-2,1
1638,1,-1,13,-5,1,20,-1,-3
1639,1,-5,8,-5,-5,15,0,-9
1640,0,-10,3,-4,-11,10,1,-14
1641,-1,-14,-3,-3,-16,5,2,-18
1642,-1,-16,-7,-2,-20,0,3,-21
1643,-1,-18,-9,-2,-21,-4,3,-22
1644,0,-18,-10,-1,-21,-7,4,-22
1645,1,-17,-9,0,-19,-9,5,-20
1646,1,-15,-8,2,-17,-11,5,-17
1647,1,-13,-6,3,-14,-12,4,-13
1648,0,-11,-5,4,-12,-12,3,-10
1649,-1,-10,-3,4,-10,-10,1,-9
1650,-2,-10,-1,3,-9,-6,0,-10
1651,-3,-9,2,2,-8,-2,-1,-11
1652,-3,-9,5,1,-7,2,-2,-13
1653,-3,-7,8,0,-5,5,-3,-13
1654,-3,-5,11,-1,-3,8,-4,-12
1655,-4,-3,15,-3,-1,11,-5,-9
1656,-4,0,18,-4,2,14,-7,-6
1657,-5,2,20,-6,6,17,-9,-1
1658,-6,4,21,-6,8,20,-10,3
1659,-6,6,20,-6,10,21,-11,5
1660,-7,6,19,-6,9,22,-11,5
1661,-7,4,17,-6,6,22,-11,3
1662,-7,1,13,-6,1,22,-11,-2
1663,-7,-3,10,-5,-5,20,-10,-7
1664,-6,-8,6,-5,-11,16,-10,-12
1665,-6,-12,1,-4,-16,9,-10,-16
1666,-6,-15,-4,-3,-18,2,-9,-19
1667,-7,-17,-8,-2,-19,-5,-7,-20
1668,-7,-18,-9,0,-18,-10,-5,-19
1669,-6,-18,-10,1,-16,-14,-4,-17
1670,-6,-16,-9,1,-13,-17,-3,-14
1671,-6,-14,-8,1,-11,-20,-3,-11
1672,-5,-13,-6,1,-8,-20,-3,-8
1673,-3,-11,-4,1,-5,-20,-3,-4
1674,0,-9,-3,2,-2,-17,-2,-2
1675,3,-7,-2,3,1,-14,0,0
1676,6,-6,-1,4,3,-10,2,0
1677,8,-4,1,5,5,-6,4,0
1678,9,-2,3,5,7,-1,5,-1
1679,9,0,4,4,8,3,4,0
1680,7,3,7,2,10,7,2,2
1681,5,6,10,0,12,12,0,6
1682,4,8,12,-2,14,16,-2,9
1683,3,9,15,-3,14,19,-3,10
1684,3,8,16,-3,13,21,-2,9
1685,3,7,16,-4,10,21,-1,7
1686,4,4,14,-4,7,21,0,3
1687,3,1,12,-3,3,17,2,-1
1688,2,-3,9,-2,0,12,2,-4
1689,1,-6,5,-1,-3,4,2,-5
1690,-1,-8,0,0,-5,-3,2,-6
1691,-2,-10,-5,1,-6,-9,2,-6
1692,-3,-12,-10,1,-8,-14,2,-7
1693,-4,-14,-12,1,-9,-17,2,-9
1694,-4,-16,-12,-1,-10,-19,2,-11
1695,-5,-17,-9,-2,-10,-19,2,-13
1696,-6,-18,-6,-3,-11,-18,1,-14
1697,-6,-18,-3,-3,-10,-17,-1,-14
1698,-7,-17,0,-3,-9,-14,-2,-12
1699,-7,-15,3,-3,-6,-11,-3,-9
1700,-7,-12,3,-3,-5,-9,-5,-7
1701,-8,-9,3,-3,-4,-5,-6,-6
1702,-10,-6,4,-4,-3,-1,-8,-5
1703,-11,-3,6,-4,-1,4,-9,-5
1704,-14,1,9,-4,1,8,-10,-3
1705,-16,5,12,-4,5,11,-11,-1
1706,-17,9,16,-4,9,13,-12,3
1707,-18,12,17,-4,13,14,-12,6
1708,-18,14,17,-4,16,15,-12,8
1709,-19,15,17,-3,17,16,-13,9
1710,-19,13,17,-3,16,15,-13,9
1711,-19,11,17,-3,12,12,-12,7
1712,-19,7,15,-2,8,8,-11,4
1713,-18,2,10,0,3,1,-9,0
1714,-15,-4,3,1,-1,-6,-7,-4
1715,-13,-8,-3,3,-3,-11,-4,-5
1716,-11,-10,-7,4,-4,-15,-2,-5
1717,-10,-10,-7,4,-3,-17,-1,-4
1718,-9,-10,-5,4,-2,-17,1,-3
1719,-9,-9,-2,3,-2,-17,1,-4
1720,-9,-10,1,2,-2,-16,2,-5
1721,-9,-11,2,2,-3,-15,2,-7
1722,-9,-11,1,1,-3,-14,2,-9
1723,-8,-12,-2,0,-4,-13,2,-10
1724,-7,-11,-3,1,-3,-12,2,-10
1725,-6,-9,-2,1,-2,-11,2,-9
1726,-5,-7,-1,2,1,-9,2,-7
1727,-4,-3,1,3,4,-6,2,-5
1728,-3,1,3,4,7,-2,1,-1
1729,-3,6,6,4,11,3,0,3
1730,-3,11,9,4,14,7,-1,8
1731,-3,16,12,3,17,11,-3,12
1732,-3,19,15,3,19,13,-3,14
1733,-4,19,17,3,19,13,-3,15
1734,-5,18,16,3,17,12,-2,13
1735,-5,14,12,4,14,10,-1,11
1736,-5,10,6,5,10,6,0,8
1737,-5,5,-2,5,6,1,1,4
1738,-5,-1,-10,4,2,-6,1,1
1739,-4,-6,-17,3,-2,-13,1,-3
1740,-4,-10,-22,2,-5,-20,2,-6
1741,-3,-13,-23,2,-7,-25,2,-9
1742,-3,-15,-21,1,-9,-28,2,-12
1743,-3,-16,-18,2,-11,-30,2,-15
1744,-3,-16,-13,3,-11,-29,2,-16
1745,-3,-15,-10,5,-10,-28,3,-17
1746,-3,-13,-7,8,-8,-27,3,-16
1747,-2,-10,-5,10,-6,-25,4,-13
1748,-2,-7,-3,12,-3,-22,4,-10
1749,-2,-3,-1,12,1,-19,3,-6
1750,-1,1,2,11,5,-13,2,-2
1751,-1,5,5,9,10,-8,1,2
1752,-1,9,8,8,14,-2,1,6
1753,0,13,12,8,19,4,2,10
1754,1,18,16,8,22,8,2,15
1755,2,21,17,8,24,10,2,19
1756,3,24,15,8,25,12,2,23
1757,3,25,14,7,25,13,2,24
1758,4,25,13,7,24,14,2,25
1759,4,23,13,7,22,16,2,24
1760,5,20,12,7,20,15,3,23
1761,6,17,8,7,16,13,4,20
1762,6,12,3,7,12,9,5,17
1763,5,9,-3,6,9,4,6,13
1764,4,5,-8,6,5,-4,6,10
1765,3,1,-13,5,2,-12,5,7
1766,1,-3,-16,4,-1,-19,4,4
1767,-1,-7,-17,3,-3,-24,2,1
1768,-2,-10,-18,3,-4,-27,1,-2
1769,-3,-11,-17,4,-4,-28,2,-4
1770,-3,-12,-15,5,-3,-27,2,-6
1771,-2,-12,-11,6,-1,-25,3,-7
1772,-2,-11,-8,6,2,-22,3,-7
1773,-2,-9,-4,5,4,-20,2,-7
1774,-3,-7,-1,4,7,-16,1,-6
1775,-5,-4,1,3,9,-11,-1,-5
1776,-7,-1,4,1,11,-6,-2,-5
1777,-8,3,7,0,12,-1,-4,-3
1778,-9,6,11,-1,13,4,-5,-2
1779,-10,9,14,-2,13,8,-6,-1
1780,-10,12,16,-1,14,11,-7,1
1781,-10,14,17,-1,14,13,-7,3
1782,-9,16,17,1,15,14,-6,6
1783,-7,17,15,2,14,13,-6,9
1784,-5,16,12,2,14,12,-5,10
1785,-3,13,8,2,12,10,-3,10
1786,-1,10,3,2,10,7,-2,8
1787,0,5,-3,2,7,2,0,6
1788,0,1,-10,2,4,-5,1,2
1789,1,-4,-16,2,0,-13,2,-2
1790,1,-9,-20,2,-3,-22,3,-5
1791,1,-12,-21,2,-6,-28,3,-8
1792,1,-15,-20,3,-8,-32,3,-10
1793,2,-17,-19,3,-8,-33,3,-11
1794,1,-16,-17,3,-7,-32,3,-10
1795,0,-14,-16,2,-5,-29,2,-9
1796,-1,-12,-15,2,-3,-26,2,-7
1797,-1,-10,-13,2,-2,-23,3,-6
1798,-1,-8,-9,3,-1,-19,3,-5
1799,-1,-6,-5,3,0,-13,3,-5
1800,-1,-4,0,2,1,-7,2,-5
1801,-1,-1,3,0,2,0,1,-5
1802,-3,3,7,-3,4,7,-1,-4
1803,-4,6,9,-5,6,12,-2,-3
1804,-4,8,11,-6,8,15,-2,-2
1805,-4,9,13,-5,10,16,-1,0
1806,-3,10,13,-4,12,16,0,2
1807,-2,10,13,-2,13,15,1,3
1808,-1,10,12,0,12,14,1,4
1809,-1,9,10,1,10,13,1,5
1810,-2,8,7,3,8,10,0,5
1811,-2,6,3,4,6,5,0,5
1812,-1,4,-2,6,3,-1,1,5
1813,-1,2,-5,7,1,-8,2,4
1814,0,0,-6,8,-2,-14,3,3
1815,0,-2,-6,8,-4,-18,3,1
1816,0,-4,-6,8,-4,-21,3,0
1817,-1,-5,-5,8,-4,-23,2,-1
1818,-2,-6,-4,8,-2,-24,1,-1
1819,-3,-6,-4,8,-1,-24,1,-1
1820,-3,-7,-3,8,2,-24,1,0
1821,-3,-7,-2,7,4,-23,1,0
1822,-3,-6,-1,6,6,-23,0,0
1823,-3,-5,1,4,8,-22,-1,0
1824,-4,-2,2,2,10,-20,-3,0
1825,-4,1,5,1,11,-17,-4,1
1826,-4,5,8,1,12,-13,-5,2
1827,-5,8,12,0,14,-8,-6,3
1828,-5,12,14,-1,15,-4,-6,5
1829,-5,15,16,-3,17,1,-6,7
1830,-5,17,15,-5,18,4,-6,8
1831,-4,18,13,-6,18,6,-5,10
1832,-2,18,11,-7,17,6,-3,11
1833,0,17,9,-6,15,6,-2,11
1834,1,13,8,-5,12,6,0,9
1835,1,9,7,-3,7,4,1,5
1836,1,4,5,-1,2,2,2,1
1837,0,-1,2,3,-3,-2,3,-4
1838,-1,-5,-1,6,-7,-7,5,-7
1839,0,-6,-4,9,-10,-11,6,-8
1840,1,-6,-5,11,-12,-16,8,-7
1841,1,-4,-6,13,-11,-19,8,-5
1842,2,-2,-6,13,-9,-22,8,-1
1843,2,0,-6,12,-6,-23,8,2
1844,2,1,-7,11,-2,-24,7,5
1845,1,2,-8,10,4,-23,6,7
1846,1,2,-9,8,8,-22,6,7
1847,0,2,-7,7,13,-20,6,8
1848,0,2,-2,7,16,-17,5,8
1849,-1,4,4,7,19,-13,4,7
1850,-1,6,11,8,22,-8,3,8
1851,0,8,19,9,23,-2,2,8
1852,0,11,24,10,23,2,2,9
1853,0,12,26,11,23,5,1,9
1854,-1,13,23,10,22,6,1,8
1855,0,14,19,10,21,7,2,8
1856,0,14,13,9,18,7,4,7
1857,2,14,7,10,16,9,6,7
1858,3,14,2,11,13,10,8,8
1859,4,14,-1,12,10,10,9,9
1860,4,13,-2,12,8,10,10,10
1861,4,11,-3,12,6,7,9,11
1862,4,8,-3,11,6,3,8,12
1863,3,5,-4,11,6,-3,6,12
1864,1,2,-5,11,7,-8,5,10
1865,0,0,-7,10,7,-14,4,8
1866,-2,-1,-8,9,7,-17,2,5
1867,-4,-3,-8,8,6,-18,1,2
1868,-5,-3,-7,6,5,-16,-1,-1
1869,-7,-4,-5,3,4,-13,-2,-4
1870,-8,-3,-5,0,3,-10,-4,-5
1871,-8,-2,-4,-2,2,-6,-4,-6
1872,-8,0,-2,-4,2,-3,-5,-5
1873,-7,3,1,-4,3,1,-4,-4
1874,-5,4,4,-4,3,3,-3,-2
1875,-3,5,7,-3,3,5,-1,-2
1876,-1,6,7,-3,2,6,0,-1
1877,1,6,5,-3,0,7,0,-1
1878,2,7,2,-4,-1,8,0,0
1879,2,8,-1,-4,-2,10,-1,0
1880,2,8,-2,-4,-3,12,-1,-1
1881,2,8,-1,-4,-4,15,-1,-1
1882,1,9,0,-4,-5,17,-1,-2
1883,1,8,1,-3,-6,19,1,-2
1884,0,7,0,-4,-7,19,2,-1
1885,-1,7,-1,-4,-7,18,3,2
1886,-1,6,-1,-3,-7,16,5,6
1887,-1,4,-1,-2,-6,12,6,9
1888,0,2,-2,0,-6,7,6,10
1889,0,0,-2,2,-6,2,7,11
1890,0,-3,-3,4,-7,-1,6,10
1891,0,-5,-4,4,-7,-5,4,8
1892,-1,-6,-5,4,-6,-7,2,6
1893,-2,-7,-4,3,-5,-8,-1,4
1894,-3,-7,-2,1,-3,-9,-4,2
1895,-5,-8,2,-1,-2,-8,-7,1
1896,-7,-8,4,-3,0,-7,-9,-1
1897,-9,-9,6,-5,0,-4,-11,-4
1898,-10,-9,8,-6,-1,-1,-12,-6
1899,-11,-9,9,-7,-2,1,-13,-8
1900,-11,-7,8,-7,-5,3,-13,-10
1901,-11,-6,6,-7,-8,3,-12,-11
1902,-9,-5,2,-7,-12,3,-11,-13
1903,-7,-4,-3,-5,-15,2,-10,-14
1904,-5,-3,-8,-3,-18,1,-9,-14
1905,-3,-2,-13,-1,-18,1,-7,-13
1906,-1,-1,-17,0,-18,2,-6,-10
1907,0,1,-17,0,-16,4,-4,-6
1908,0,2,-16,-2,-13,8,-4,-3
1909,-1,3,-13,-4,-10,10,-3,-1
1910,-2,3,-10,-7,-8,12,-3,1
1911,-3,4,-6,-8,-6,11,-3,2
1912,-4,5,-3,-10,-5,9,-2,2
1913,-4,4,-1,-10,-3,6,-2,3
1914,-4,3,-2,-10,-2,2,-3,3
1915,-4,1,-4,-9,-1,-2,-3,1
1916,-3,-2,-6,-8,-2,-6,-3,-3
1917,-3,-5,-5,-6,-2,-9,-2,-6
1918,-3,-7,-3,-4,-2,-10,0,-9
1919,-2,-7,0,-2,-1,-9,2,-9
1920,-1,-6,2,-1,1,-7,4,-7
1921,1,-4,2,1,4,-5,5,-4
1922,2,-1,1,2,7,-3,6,0
1923,3,2,-2,2,10,-3,6,4
1924,4,5,-3,3,12,-2,5,8
1925,5,7,-2,3,14,0,4,11
1926,5,10,0,3,14,4,3,13
1927,4,11,1,2,12,8,2,13
1928,4,11,1,0,8,13,1,11
1929,2,10,-1,-2,2,17,-1,7
1930,1,7,-3,-5,-5,20,-3,2
1931,-1,5,-4,-8,-11,22,-5,-2
1932,-3,3,-3,-11,-16,23,-7,-4
1933,-4,2,-3,-12,-18,23,-8,-5
1934,-6,1,-2,-12,-19,23,-9,-5
1935,-7,0,-2,-11,-19,21,-10,-4
1936,-8,-1,-3,-9,-18,19,-10,-3
1937,-9,-2,-6,-7,-16,16,-9,-1
1938,-9,-3,-8,-5,-14,12,-8,-1
1939,-8,-4,-9,-3,-12,8,-7,-1
1940,-7,-5,-9,-2,-10,5,-5,-2
1941,-6,-6,-7,-2,-7,1,-4,-3
1942,-6,-8,-5,-2,-5,-1,-4,-4
1943,-7,-9,-3,-3,-3,-3,-5,-6
1944,-8,-10,-2,-4,-1,-2,-6,-7
1945,-9,-11,-1,-6,0,0,-8,-8
1946,-10,-11,2,-7,1,3,-9,-8
1947,-10,-10,7,-8,2,6,-10,-8
1948,-9,-8,12,-9,3,10,-9,-7
1949,-8,-6,17,-9,3,13,-9,-5
1950,-7,-4,19,-8,4,15,-8,-4
1951,-6,-3,19,-7,4,16,-7,-3
1952,-6,-3,17,-6,4,16,-5,-2
1953,-5,-2,15,-6,4,17,-4,0
1954,-4,-2,11,-5,4,17,-2,2
1955,-3,-2,8,-4,4,18,-1,4
1956,-1,-1,5,-3,3,19,0,6
1957,2,0,2,-2,1,17,2,8
1958,4,1,-1,0,-1,14,4,9
1959,6,2,-5,2,-2,9,5,10
1960,8,2,-10,3,-3,4,7,9
1961,9,2,-13,3,-3,1,7,7
1962,8,2,-15,2,-3,-1,7,5
1963,6,1,-14,0,-1,-2,6,3
1964,4,1,-10,-3,1,-2,5,1
1965,1,1,-4,-5,3,0,3,-1
1966,-2,1,1,-7,5,2,1,-2
1967,-4,2,5,-8,7,4,-2,-1
1968,-6,3,7,-10,9,6,-3,-1
1969,-7,4,9,-11,12,7,-4,0
1970,-8,4,11,-12,14,8,-5,1
1971,-8,4,13,-12,15,8,-5,1
1972,-8,3,17,-12,17,9,-5,2
1973,-7,2,20,-11,17,9,-5,3
1974,-6,1,21,-10,17,9,-5,3
1975,-5,-2,20,-10,16,10,-5,3
1976,-5,-4,16,-10,14,12,-6,1
1977,-4,-7,13,-11,11,14,-7,-1
1978,-4,-9,12,-12,8,17,-7,-4
1979,-4,-11,11,-12,3,19,-6,-8
1980,-4,-12,9,-12,-3,19,-6,-12
1981,-4,-14,5,-12,-8,18,-5,-16
1982,-4,-16,0,-11,-13,14,-5,-19
1983,-3,-16,-5,-11,-16,10,-5,-20
1984,-3,-16,-10,-10,-18,6,-6,-20
1985,-3,-14,-13,-10,-19,1,-6,-19
1986,-2,-13,-15,-8,-18,-4,-5,-18
1987,-2,-11,-16,-7,-17,-9,-5,-16
1988,-2,-9,-16,-4,-14,-13,-4,-13
1989,-2,-6,-14,-2,-11,-14,-4,-10
1990,-2,-2,-11,0,-6,-14,-4,-5
1991,-2,1,-8,1,-1,-12,-4,-1
1992,-2,4,-5,2,4,-10,-5,3
1993,-3,7,-2,2,8,-7,-5,7
1994,-4,9,2,1,12,-4,-5,10
1995,-5,11,7,0,16,-2,-5,13
1996,-5,12,12,-1,20,1,-5,16
1997,-5,11,16,-2,22,4,-5,17
1998,-6,10,17,-4,24,6,-5,17
1999,-5,7,17,-5,24,7,-6,14
2000,-5,4,16,-6,22,8,-6,11
2001,-4,0,15,-7,19,9,-6,7
2002,-4,-3,13,-8,16,11,-5,3
2003,-4,-5,11,-9,11,12,-6,-1
2004,-4,-7,8,-10,6,12,-6,-4
2005,-4,-10,5,-10,1,12,-6,-7
2006,-4,-11,1,-11,-4,10,-6,-10
2007,-4,-13,-4,-10,-6,7,-6,-12
2008,-4,-13,-8,-8,-8,3,-5,-13
2009,-3,-12,-13,-7,-8,-1,-3,-13
2010,-3,-11,-17,-5,-7,-5,-2,-12
2011,-1,-9,-18,-3,-6,-8,-1,-11
2012,0,-7,-17,-1,-5,-10,1,-9
2013,2,-5,-12,0,-3,-11,2,-8
2014,2,-4,-7,0,0,-12,3,-6
2015,3,-3,-2,-1,3,-11,2,-5
2016,3,-2,2,-1,7,-11,2,-3
2017,2,-2,5,-1,11,-11,1,-1
2018,1,-1,9,-1,16,-12,-1,1
2019,0,0,12,-1,21,-13,-1,3
2020,-2,1,16,-1,26,-14,-2,5
2021,-3,1,18,0,29,-14,-2,6
2022,-4,1,19,0,31,-13,-3,7
2023,-5,1,18,-1,30,-11,-4,8
2024,-6,-1,17,-2,27,-8,-4,6
2025,-6,-2,15,-3,23,-6,-4,4
2026,-6,-3,12,-4,18,-4,-4,0
2027,-6,-5,9,-5,13,-2,-3,-4
2028,-5,-6,7,-6,7,-1,-3,-8
2029,-4,-8,5,-7,2,2,-4,-11
2030,-3,-8,4,-7,-2,3,-4,-13
2031,-2,-8,2,-7,-5,3,-4,-13
2032,-1,-6,-1,-6,-6,2,-3,-13
2033,0,-4,-3,-4,-6,0,-1,-11
2034,1,-2,-4,-2,-4,-4,2,-8
2035,2,1,-6,0,-1,-7,5,-5
2036,3,4,-7,2,2,-10,6,0
2037,4,6,-7,4,6,-12,7,4
2038,5,9,-6,5,9,-11,7,9
2039,5,11,-4,5,12,-9,8,13
2040,5,13,-2,5,14,-6,8,16
2041,5,14,3,5,17,-4,8,18
2042,5,15,8,5,19,-1,8,19
2043,4,14,13,4,21,2,7,18
2044,3,13,19,3,22,5,6,16
2045,1,11,24,3,22,6,5,14
2046,1,8,28,2,21,7,4,11
2047,0,5,29,2,19,8,3,8
2048,1,1,27,1,16,8,3,4
2049,1,-2,22,0,12,7,3,-1
2050,1,-5,16,-2,8,7,2,-6
2051,1,-7,10,-3,3,7,2,-10
2052,1,-8,5,-4,-2,8,1,-13
2053,1,-8,1,-5,-6,7,1,-15
2054,0,-8,-3,-5,-8,6,0,-16
2055,-1,-7,-8,-4,-10,3,0,-16
2056,-2,-6,-14,-4,-11,-2,0,-15
2057,-4,-4,-19,-2,-10,-7,0,-13
2058,-4,-2,-21,-1,-9,-12,1,-10
2059,-5,0,-22,-1,-7,-17,1,-7
2060,-5,1,-21,0,-6,-19,0,-4
2061,-5,2,-19,1,-4,-21,0,-1
2062,-6,3,-17,1,-3,-21,-1,0
2063,-7,3,-14,0,-2,-21,-1,0
2064,-8,3,-11,0,0,-22,-2,1
2065,-9,5,-6,-1,3,-20,-3,3
2066,-10,8,0,-1,7,-18,-4,5
2067,-9,10,6,-2,10,-14,-5,7
2068,-9,11,10,-2,13,-9,-6,9
2069,-8,10,13,-2,14,-4,-6,9
2070,-8,8,15,-3,13,-1,-6,6
2071,-8,6,15,-4,11,3,-6,3
2072,-8,3,14,-5,9,5,-5,-2
2073,-7,2,12,-5,7,6,-5,-5
2074,-6,1,11,-5,5,7,-4,-6
2075,-5,1,9,-4,4,8,-4,-6
2076,-3,1,7,-3,3,8,-3,-6
2077,-2,1,5,-2,2,8,-2,-5
2078,-1,1,2,0,0,7,0,-4
2079,1,1,0,2,-3,6,1,-4
2080,3,1,-3,4,-5,4,3,-3
2081,4,1,-6,5,-7,1,5,-2
2082,5,1,-8,6,-8,-3,6,-1
2083,6,1,-11,7,-7,-6,7,0
2084,6,1,-13,7,-6,-9,7,1
2085,6,1,-13,7,-5,-11,6,2
2086,5,1,-11,6,-3,-12,6,3
2087,4,2,-7,6,-2,-13,4,5
2088,3,3,-3,6,0,-13,3,7
2089,3,5,0,6,1,-12,2,9
2090,3,6,2,6,2,-10,2,10
2091,3,7,4,6,4,-7,2,10
2092,2,7,6,5,6,-3,2,11
2093,2,7,9,4,8,1,1,10
2094,1,6,12,2,8,5,0,9
2095,-1,4,15,1,8,7,-1,7
2096,-2,2,16,-1,8,8,-2,4
2097,-3,-1,14,-2,7,9,-2,1
2098,-3,-3,12,-4,6,9,-2,-3
2099,-3,-4,10,-5,4,10,-2,-5
2100,-3,-4,8,-5,3,10,-3,-6
2101,-2,-4,5,-6,2,9,-3,-6
2102,-2,-2,1,-5,0,8,-4,-5
2103,-1,-1,-2,-4,-1,5,-4,-3
2104,-1,1,-5,-3,-2,2,-4,-1
2105,-1,2,-6,-1,-3,-3,-3,1
2106,-1,3,-6,1,-3,-7,-3,3
2107,-1,4,-6,2,-1,-10,-2,5
2108,-1,4,-6,4,1,-12,-1,6
2109,-1,5,-5,5,3,-12,1,7
2110,-1,5,-4,6,5,-11,2,8
2111,-1,7,-3,7,7,-10,2,10
2112,-1,8,-1,7,9,-10,2,11
2113,-1,9,1,7,10,-9,1,12
2114,-2,9,5,7,12,-7,0,12
2115,-2,9,8,6,12,-5,-1,12
2116,-2,8,11,5,13,-3,-1,12
2117,-1,6,12,3,13,-1,0,10
2118,0,4,13,2,13,1,1,9
2119,1,3,13,2,12,3,2,7
2120,2,3,12,2,10,5,3,6
2121,3,3,12,2,9,7,4,6
2122,3,5,11,3,7,8,4,6
2123,3,7,10,3,5,9,4,7
2124,4,8,8,4,4,9,3,8
2125,4,9,3,4,2,8,3,8
2126,4,9,-1,5,-1,6,4,8
2127,4,7,-5,5,-3,4,5,6
2128,4,6,-8,5,-5,1,5,5
2129,4,4,-9,5,-6,-2,5,3
2130,4,2,-10,5,-7,-6,4,1
2131,3,-1,-12,4,-7,-10,4,0
2132,2,-2,-13,3,-6,-14,3,-1
2133,0,-3,-15,2,-6,-16,2,-2
2134,-1,-3,-16,2,-5,-17,1,-2
2135,-2,-2,-14,2,-4,-17,0,-1
2136,-2,1,-10,2,-3,-16,-1,0
2137,-2,3,-4,2,-2,-13,-1,1
2138,-1,5,3,2,-1,-10,-2,2
2139,-1,6,8,3,0,-7,-2,2
2140,0,5,12,2,-1,-3,-2,1
2141,-1,4,15,1,-2,1,-2,0
2142,-2,2,17,0,-3,5,-3,-2
2143,-4,1,17,-1,-4,8,-4,-3
2144,-5,0,17,-3,-5,9,-4,-4
2145,-6,-1,14,-3,-5,10,-4,-4
2146,-7,-1,11,-4,-6,9,-4,-4
2147,-7,-1,6,-4,-8,8,-4,-5
2148,-6,-1,0,-4,-10,8,-4,-5
2149,-5,-1,-5,-3,-12,7,-4,-5
2150,-3,0,-9,-2,-14,7,-3,-4
2151,-2,0,-10,-1,-16,7,-2,-4
2152,0,0,-10,1,-16,7,0,-3
2153,2,-1,-10,3,-17,6,2,-2
2154,3,-1,-9,4,-16,3,3,-1
2155,4,-1,-8,4,-15,0,4,1
2156,4,-1,-8,5,-13,-3,4,2
2157,4,1,-8,5,-12,-4,4,3
2158,4,2,-8,5,-10,-4,4,4
2159,4,3,-8,6,-9,-3,4,4
2160,3,4,-9,6,-8,-2,4,5
2161,2,5,-11,6,-7,-2,3,6
2162,1,6,-11,5,-6,-3,2,7
2163,0,7,-10,4,-4,-2,0,8
2164,-1,9,-6,3,-2,-1,-2,10
2165,-1,10,0,3,0,2,-3,10
2166,0,11,5,2,2,5,-3,10
2167,1,10,8,2,3,8,-2,9
2168,2,9,9,1,3,11,-2,8
2169,2,7,10,0,2,12,-2,6
2170,2,5,10,-1,0,12,-2,4
2171,1,4,9,-1,-3,10,-2,3
2172,0,3,6,-1,-6,7,-2,2
2173,-1,2,2,-1,-8,4,-2,2
2174,-1,2,-4,0,-9,1,-2,2
2175,-1,2,-9,1,-9,-1,-1,1
2176,-1,1,-13,2,-9,-2,1,1
2177,1,1,-15,3,-9,-4,2,1
2178,2,1,-15,5,-9,-6,3,2
2179,3,2,-16,5,-8,-8,4,2
2180,3,2,-16,6,-8,-10,4,3
2181,3,3,-16,6,-7,-11,3,3
2182,2,3,-13,7,-6,-10,3,4
2183,1,3,-10,7,-4,-9,3,4
2184,1,3,-6,6,-3,-7,2,4
2185,1,4,-1,5,-1,-5,2,4
2186,1,6,3,4,1,-3,1,4
2187,2,7,5,4,3,-1,1,5
2188,2,8,6,3,5,1,-1,6
2189,2,9,5,3,6,3,-2,7
2190,2,8,3,3,6,5,-2,7
2191,2,7,1,3,5,6,-2,7
2192,2,6,0,2,4,7,-2,5
2193,2,5,1,2,3,8,0,4
2194,2,4,1,2,2,7,1,3
2195,3,4,1,3,2,6,2,2
2196,4,3,-1,3,1,4,3,2
2197,5,3,-4,4,0,3,4,3
2198,5,3,-6,4,0,1,5,4
2199,4,4,-7,3,0,0,5,5
2200,3,5,-7,2,0,-2,4,6
2201,1,6,-6,1,1,-3,3,7
2202,0,7,-6,0,1,-4,2,7
2203,-1,7,-7,-1,1,-6,1,6
2204,-2,7,-8,-2,1,-7,0,3
2205,-2,5,-9,-1,0,-8,0,1
2206,-2,4,-9,0,0,-8,1,-2
2207,-3,4,-8,2,-1,-8,1,-4
2208,-3,4,-6,4,0,-8,0,-4
2209,-4,5,-3,5,1,-8,-1,-3
2210,-5,6,0,6,3,-6,-2,-1
2211,-5,8,4,7,6,-5,-3,2
2212,-5,9,7,6,8,-3,-4,3
2213,-5,9,9,6,9,-2,-4,4
2214,-6,8,11,4,9,-1,-4,3
2215,-7,7,11,3,8,0,-5,2
2216,-8,5,9,2,7,0,-5,1
2217,-9,2,6,2,5,0,-6,-1
2218,-9,0,1,1,3,0,-6,-2
2219,-9,-2,-3,0,1,-1,-7,-4
2220,-9,-4,-5,-1,-1,-3,-7,-6
2221,-9,-5,-6,-2,-4,-4,-8,-8
2222,-9,-6,-5,-3,-6,-5,-8,-10
2223,-8,-6,-5,-4,-8,-5,-7,-12
2224,-9,-6,-5,-5,-10,-4,-7,-14
2225,-8,-6,-6,-5,-12,-3,-6,-14
2226,-8,-7,-8,-4,-13,-3,-5,-14
2227,-8,-7,-10,-3,-15,-4,-4,-15
2228,-7,-8,-11,-2,-16,-7,-3,-15
2229,-7,-9,-11,-1,-16,-9,-3,-15
2230,-6,-8,-11,-1,-16,-12,-3,-15
2231,-6,-7,-11,0,-16,-13,-3,-14
2232,-5,-5,-10,1,-14,-13,-3,-12
2233,-4,-3,-8,2,-11,-10,-2,-8
2234,-2,1,-6,3,-8,-7,-2,-5
2235,-1,4,-3,3,-6,-3,-1,-2
2236,-1,5,0,3,-3,2,-1,-1
2237,-1,4,2,3,-2,5,-1,-1
2238,-3,2,3,3,-2,6,-1,-3
2239,-4,-1,4,3,-1,7,-1,-5
2240,-5,-4,5,3,-1,6,-1,-7
2241,-7,-6,5,3,-2,3,-1,-8
2242,-7,-7,3,4,-3,-1,-1,-8
2243,-7,-8,-1,5,-5,-4,-2,-8
2244,-7,-8,-3,5,-7,-7,-2,-8
2245,-6,-7,-3,5,-8,-7,-2,-8
2246,-6,-6,-4,4,-9,-7,-1,-8
2247,-5,-6,-4,3,-9,-5,-1,-8
2248,-5,-4,-4,1,-8,-3,-2,-8
2249,-4,-3,-4,-2,-8,-1,-3,-8
2250,-4,-2,-4,-3,-8,0,-4,-7
2251,-4,-1,-4,-4,-8,0,-4,-7
2252,-4,-1,-4,-3,-9,-1,-4,-8
2253,-4,0,-5,-2,-10,-3,-3,-8
2254,-3,-1,-5,0,-10,-5,-1,-9
2255,-2,-1,-5,2,-10,-6,0,-9
2256,-1,-1,-4,4,-8,-6,1,-9
2257,0,-1,-1,5,-6,-5,1,-7
2258,1,-1,3,5,-3,-4,1,-5
2259,1,0,7,5,-1,-3,0,-3
2260,0,1,9,3,1,-1,-1,-1
2261,-2,1,10,1,1,2,-3,-1
2262,-3,-1,9,-1,1,4,-5,-1
2263,-4,-3,9,-2,-1,6,-6,-4
2264,-5,-5,9,-2,-2,6,-6,-6
2265,-5,-8,8,-3,-4,5,-6,-9
2266,-6,-10,7,-3,-5,3,-5,-11
2267,-6,-10,6,-3,-5,2,-4,-11
2268,-6,-10,4,-3,-5,1,-4,-11
2269,-6,-9,2,-3,-4,0,-4,-9
2270,-6,-8,1,-4,-3,-1,-5,-6
2271,-6,-7,0,-4,-2,-2,-4,-4
2272,-6,-5,-1,-3,-2,-3,-4,-2
2273,-5,-4,-2,-2,-3,-5,-2,-2
2274,-3,-2,-4,2,-4,-6,0,-1
2275,0,-1,-5,5,-5,-8,3,-1
2276,2,0,-5,8,-5,-9,5,1
2277,3,2,-5,11,-5,-10,6,2
2278,5,3,-4,12,-3,-10,7,4
2279,6,5,-3,13,-1,-9,7,6
2280,7,7,-2,13,2,-8,8,7
2281,7,9,0,13,4,-6,9,8
2282,7,10,2,12,6,-5,9,8
2283,5,10,4,10,8,-2,9,7
2284,4,9,5,8,9,0,8,6
2285,2,8,7,5,10,3,6,6
2286,-1,7,9,2,12,5,3,7
2287,-2,7,11,1,12,6,1,8
2288,-2,8,11,-1,12,7,0,9
2289,-3,8,10,-1,12,6,0,8
2290,-3,7,8,-2,10,5,-1,7
2291,-4,7,4,-2,8,4,-1,5
2292,-4,6,1,-3,6,3,-2,3
2293,-4,5,-2,-3,5,1,-3,3
2294,-4,5,-5,-3,4,-2,-3,2
2295,-4,4,-6,-3,3,-4,-3,2
2296,-4,3,-6,-3,2,-6,-2,0
2297,-3,3,-6,-2,1,-7,-1,-2
2298,-3,2,-5,-2,0,-8,-1,-4
2299,-3,2,-3,-1,-1,-8,-1,-5
2300,-4,3,-1,-1,-2,-7,-1,-6
2301,-4,3,-1,-1,-2,-7,-1,-5
2302,-4,4,-1,-1,-1,-7,-1,-4
2303,-4,5,-2,-1,0,-7,-1,-3
2304,-4,6,-3,-1,2,-8,-1,-1
2305,-3,8,-3,-1,4,-7,-1,1
2306,-3,10,-1,-1,6,-6,-1,3
2307,-3,12,1,-1,9,-4,-1,5
2308,-3,14,3,-1,12,-3,-1,7
2309,-2,14,4,-2,14,-2,0,9
2310,-2,13,3,-2,16,-2,0,9
2311,-3,10,2,-3,17,-2,0,8
2312,-3,7,2,-3,17,-1,0,7
2313,-4,5,3,-3,17,-1,0,6
2314,-4,4,4,-2,17,1,-1,6
2315,-4,4,6,-1,15,2,-1,6
2316,-3,4,7,1,14,3,-1,6
2317,-2,5,8,2,12,4,0,7
2318,-1,6,7,4,10,3,1,8
2319,0,6,6,4,8,2,1,8
2320,-1,6,4,5,5,1,1,8
2321,-1,5,1,5,3,-2,1,7
2322,-2,6,-2,4,1,-4,0,5
2323,-3,6,-4,4,-1,-7,0,3
2324,-4,6,-7,4,-2,-10,1,1
2325,-4,6,-9,3,-2,-13,1,0
2326,-4,6,-10,3,-2,-14,1,0
2327,-3,8,-9,4,0,-15,1,1
2328,-3,10,-6,6,3,-14,2,4
2329,-3,13,-2,8,6,-12,2,8
2330,-3,16,2,9,9,-10,2,11
2331,-3,17,5,10,12,-9,2,13
2332,-4,17,6,9,15,-8,2,14
2333,-5,15,6,8,16,-7,2,13
2334,-5,13,7,5,17,-6,1,13
2335,-5,11,8,4,18,-4,0,14
2336,-5,10,9,2,18,-2,-1,14
2337,-5,8,9,0,17,1,-2,14
2338,-6,6,8,-2,15,2,-3,13
2339,-6,5,5,-4,13,3,-3,11
2340,-6,3,2,-5,10,2,-4,8
2341,-6,2,0,-5,7,1,-4,6
2342,-6,1,-1,-5,5,0,-4,4
2343,-6,2,-2,-5,3,-1,-4,3
2344,-6,2,-2,-4,2,-2,-4,2
2345,-5,2,-2,-3,0,-3,-4,1
2346,-5,1,-1,-3,-2,-5,-4,-2
2347,-6,1,-1,-3,-3,-6,-5,-4
2348,-7,1,-1,-4,-4,-7,-5,-5
2349,-8,3,-2,-4,-5,-7,-6,-6
2350,-9,6,-2,-5,-4,-6,-6,-5
2351,-8,9,-1,-5,-2,-4,-5,-3
2352,-8,12,2,-5,1,-2,-4,-1
2353,-7,13,5,-4,4,-1,-3,2
2354,-6,13,7,-4,7,-1,-2,3
2355,-6,11,7,-3,10,-3,-1,3
2356,-6,9,5,-3,12,-5,0,3
2357,-6,6,2,-2,13,-8,0,3
2358,-6,4,-3,-3,13,-11,0,3
2359,-6,3,-9,-4,12,-13,0,2
2360,-6,2,-14,-5,12,-15,0,1
2361,-7,0,-17,-6,11,-15,0,-1
2362,-7,-1,-17,-6,10,-15,0,-1
2363,-7,-1,-16,-6,10,-13,0,-2
2364,-7,-1,-12,-6,10,-11,0,-1
2365,-6,-1,-7,-6,10,-8,0,-1
2366,-6,0,-3,-6,9,-4,-1,-1
2367,-6,1,1,-7,8,-1,-2,-1
2368,-5,1,3,-7,6,2,-2,-2
2369,-5,0,5,-6,4,3,-2,-4
2370,-4,0,5,-6,2,3,-1,-6
2371,-3,1,3,-4,0,1,0,-7
2372,-2,2,-1,-2,-1,-1,2,-7
2373,0,3,-4,0,0,-2,4,-6
2374,1,5,-4,1,2,-2,6,-4
2375,1,7,-3,2,5,-3,6,-2
2376,1,8,-1,2,7,-4,6,0
2377,-1,9,3,1,10,-4,6,2
2378,-2,10,6,-1,12,-5,5,2
2379,-4,9,10,-4,12,-4,4,2
2380,-5,6,12,-5,12,-4,2,0
2381,-6,3,12,-7,11,-4,1,-3
2382,-7,-2,9,-8,9,-5,0,-6
2383,-7,-5,4,-9,7,-7,-2,-9
2384,-8,-8,-3,-10,7,-9,-3,-11
2385,-8,-9,-8,-10,7,-10,-5,-10
2386,-9,-8,-11,-11,8,-10,-6,-9
2387,-10,-8,-10,-12,9,-7,-8,-8
2388,-10,-7,-7,-13,8,-4,-8,-8
2389,-11,-6,-2,-13,6,0,-8,-10
2390,-11,-6,2,-14,3,4,-7,-12
2391,-11,-6,3,-14,0,5,-7,-14
2392,-10,-5,2,-14,-2,5,-6,-15
2393,-9,-5,0,-13,-4,2,-5,-15
2394,-9,-4,-3,-11,-4,-2,-4,-13
2395,-9,-4,-5,-10,-4,-6,-4,-12
2396,-9,-4,-5,-9,-4,-9,-4,-10
2397,-9,-4,-4,-8,-3,-11,-3,-9
2398,-9,-3,-1,-8,-2,-11,-3,-8
2399,-8,-3,1,-8,-2,-12,-2,-8
2400,-8,-3,2,-7,-1,-12,-1,-9
2401,-7,-2,3,-7,0,-11,-1,-9
2402,-6,-1,5,-7,2,-9,0,-8
2403,-7,1,7,-6,4,-6,0,-6
2404,-7,2,9,-7,6,-3,-1,-4
2405,-8,2,8,-8,7,-1,-2,-3
2406,-8,0,7,-9,7,0,-2,-4
2407,-8,-2,5,-10,5,-1,-3,-6
2408,-7,-5,2,-10,4,-2,-3,-8
2409,-7,-6,1,-10,3,-3,-3,-9
2410,-6,-7,2,-11,3,-2,-4,-9
2411,-6,-6,2,-11,4,-1,-5,-8
2412,-6,-4,3,-12,4,1,-5,-7
2413,-5,-2,4,-12,5,3,-6,-4
2414,-5,0,4,-12,6,4,-6,-2
2415,-5,2,5,-12,7,4,-5,0
2416,-4,4,4,-11,6,2,-4,2
2417,-4,4,1,-10,5,0,-3,2
2418,-3,3,-3,-9,3,-4,-2,0
2419,-3,1,-6,-7,1,-6,-1,-3
2420,-3,0,-8,-5,-1,-9,0,-5
2421,-3,-2,-7,-4,-2,-10,1,-7
2422,-4,-2,-5,-3,-1,-11,1,-7
2423,-4,-1,-3,-2,1,-11,1,-6
2424,-4,1,-1,-2,5,-11,0,-4
2425,-4,3,1,-2,8,-11,0,-2
2426,-4,6,2,-3,12,-11,0,1
2427,-4,8,2,-3,15,-10,-1,3
2428,-4,8,2,-3,16,-9,-1,4
2429,-4,8,1,-2,15,-7,-1,4
2430,-3,6,-1,-2,12,-5,0,2
2431,-3,4,-4,-1,9,-3,1,1
2432,-2,2,-7,0,6,-2,2,-1
2433,-1,1,-9,1,4,-1,2,-2
2434,1,2,-9,1,3,0,3,-1
2435,1,4,-6,1,3,1,3,1
2436,2,6,-3,1,4,1,3,4
2437,2,9,0,0,6,1,2,7
2438,1,10,2,-1,8,0,1,9
2439,1,10,3,-1,9,-2,1,9
2440,1,8,2,-1,9,-3,1,8
2441,0,6,2,0,8,-5,1,5
2442,-1,2,3,0,6,-6,2,2
2443,-1,-1,3,0,4,-8,2,-1
2444,-2,-3,1,0,2,-10,2,-4
2445,-2,-4,-3,-1,-1,-11,1,-5
2446,-2,-4,-6,-1,-2,-11,1,-6
2447,-2,-3,-7,-2,-3,-11,1,-5
2448,-2,-2,-5,-3,-3,-10,0,-4
2449,-3,0,-2,-4,-2,-9,-1,-2
2450,-3,1,1,-5,0,-7,-1,-1
2451,-3,2,3,-6,3,-5,0,1
2452,-2,1,3,-6,6,-3,1,2
2453,-1,0,4,-6,10,0,2,2
2454,1,-1,6,-7,13,2,2,3
2455,2,-2,8,-7,16,5,2,4
2456,2,-1,10,-7,18,6,1,6
2457,2,1,9,-7,18,7,-1,8
2458,1,3,7,-7,16,8,-3,10
2459,1,6,4,-6,14,9,-4,11
2460,0,7,1,-5,11,10,-4,12
2461,0,9,0,-3,9,9,-3,11
2462,1,9,1,-2,6,7,-1,10
2463,1,8,1,0,4,3,2,8
2464,2,6,0,2,2,-2,4,6
2465,3,4,-2,4,1,-6,5,4
2466,3,2,-3,6,0,-10,6,2
2467,2,0,-3,8,1,-13,6,2
2468,1,0,-2,10,2,-16,6,2
2469,-1,0,-1,11,4,-19,6,3
2470,-2,1,0,11,6,-21,5,4
2471,-3,1,-1,10,7,-22,5,4
2472,-3,0,-2,9,7,-21,5,3
2473,-3,-2,-4,8,6,-20,6,1
2474,-2,-4,-5,6,4,-18,6,-1
2475,-1,-7,-6,4,3,-14,5,-4
2476,0,-10,-7,2,1,-11,4,-7
2477,-1,-12,-8,-1,0,-8,3,-9
2478,-3,-13,-8,-4,-2,-5,1,-11
2479,-5,-13,-6,-6,-3,-3,-1,-12
2480,-6,-11,-3,-8,-4,0,-3,-12
2481,-7,-9,2,-9,-3,2,-4,-10
2482,-6,-5,5,-8,-2,4,-5,-6
2483,-5,0,6,-7,-1,6,-4,-2
2484,-2,5,5,-5,1,8,-3,2
2485,1,10,2,-3,3,9,-2,6
2486,2,14,0,-1,4,10,-1,9
2487,2,17,0,0,4,10,-1,11
2488,1,18,0,0,4,8,-1,11
2489,-1,17,-1,0,2,4,-1,9
2490,-3,15,-3,1,-1,-1,-1,5
2491,-6,12,-5,2,-4,-7,-1,1
2492,-8,8,-6,4,-6,-12,1,-4
2493,-8,5,-7,7,-8,-17,2,-8
2494,-8,2,-6,9,-8,-19,4,-11
2495,-7,-3,-5,11,-7,-20,6,-14
2496,-6,-8,-6,12,-6,-21,8,-17
2497,-3,-13,-8,11,-6,-21,10,-19
2498,0,-17,-9,11,-5,-20,11,-20
2499,3,-20,-10,10,-3,-18,12,-18
2500,6,-20,-10,9,-2,-14,11,-13
2501,7,-18,-9,8,0,-10,9,-8
2502,7,-14,-7,6,2,-6,6,-3
2503,6,-9,-6,4,5,-2,3,3
2504,4,-4,-7,1,7,2,0,7
2505,1,1,-8,-3,8,5,-3,10
2506,-2,4,-8,-6,9,7,-5,11
2507,-5,8,-7,-8,8,8,-7,10
2508,-6,10,-6,-9,5,10,-7,9
2509,-7,13,-3,-8,2,11,-7,8
2510,-6,16,0,-6,-1,12,-5,7
2511,-3,19,4,-2,-3,13,-3,9
2512,-1,22,8,2,-4,13,0,10
2513,1,24,10,5,-4,12,2,12
2514,1,24,10,7,-3,10,2,12
2515,1,21,9,7,-3,7,1,11
2516,-1,16,6,7,-2,3,0,8
2517,-3,9,4,5,-3,0,-2,4
2518,-4,2,4,4,-4,-2,-4,-1
2519,-3,-6,4,2,-5,-4,-4,-6
2520,0,-13,4,0,-6,-5,-4,-10
2521,3,-19,3,-1,-5,-6,-3,-12
2522,6,-22,1,-3,-3,-5,-2,-12
2523,8,-23,0,-4,-1,-3,-2,-10
2524,10,-23,1,-6,1,0,-1,-9
2525,12,-23,3,-7,3,4,0,-7
2526,13,-22,7,-7,4,9,0,-5
2527,14,-21,10,-8,6,14,0,-2
2528,16,-18,10,-9,7,18,0,2
2529,16,-13,9,-9,8,20,-2,6
2530,15,-8,6,-9,9,21,-3,11
2531,13,-3,3,-8,9,21,-5,16
2532,11,2,0,-8,7,22,-8,19
2533,9,5,-1,-8,6,23,-10,20
2534,6,8,-1,-8,4,24,-12,19
2535,4,8,-1,-9,2,24,-13,17
2536,2,8,-1,-9,-1,20,-14,13
2537,1,7,-3,-9,-4,14,-13,9
2538,1,6,-5,-7,-7,7,-11,4
2539,1,4,-5,-5,-10,3,-8,0
2540,2,3,-4,-2,-12,0,-5,-3
2541,3,2,1,0,-12,0,-2,-4
2542,3,1,6,2,-12,1,0,-4
2543,3,-1,10,2,-12,2,1,-4
2544,1,-4,11,1,-10,3,1,-3
2545,-1,-7,11,-1,-9,4,0,-3
2546,-3,-11,12,-4,-7,6,-2,-4
2547,-6,-14,13,-8,-5,10,-5,-5
2548,-8,-18,15,-12,-2,15,-7,-6
2549,-9,-20,18,-16,-1,20,-9,-7
2550,-10,-20,19,-19,1,24,-11,-7
2551,-9,-20,18,-21,1,27,-12,-7
2552,-8,-18,16,-22,0,28,-13,-7
2553,-7,-16,13,-23,-1,28,-14,-6
2554,-5,-14,11,-22,-1,28,-14,-5
2555,-3,-11,10,-20,-1,28,-13,-3
2556,-1,-8,9,-17,-1,29,-12,1
2557,2,-4,9,-13,1,28,-9,7
2558,5,1,7,-9,3,25,-5,13
2559,8,5,5,-4,5,20,-2,19
2560,11,9,2,1,7,14,2,24
2561,-1,2,3,-1,-4,1,1,-8
2562,-2,4,7,-1,-4,3,1,-6
2563,-2,5,9,0,-3,5,1,-5
2564,-3,5,12,1,-2,7,2,-4
2565,-3,5,14,3,0,8,3,-3
2566,-2,4,16,3,2,8,3,-2
2567,0,3,16,4,4,8,4,-1
2568,2,1,14,4,5,7,4,0
2569,4,-1,11,4,6,6,5,-1
2570,6,-3,7,4,6,5,6,-1
2571,6,-4,3,4,6,5,7,-2
2572,5,-5,1,4,6,3,7,-2
2573,4,-6,-2,4,6,1,7,-2
2574,2,-7,-3,5,6,-2,7,-2
2575,1,-8,-3,4,5,-4,6,-2
2576,0,-9,-4,4,3,-6,4,-4
2577,-1,-10,-2,2,2,-6,3,-5
2578,-2,-10,0,1,1,-6,1,-6
2579,-2,-9,2,0,0,-5,1,-6
2580,-2,-8,3,-1,-1,-5,1,-6
2581,-1,-7,4,-1,-1,-4,2,-6
2582,0,-7,3,-2,-1,-3,2,-7
2583,1,-7,2,-2,-1,-2,2,-7
2584,2,-7,1,-2,-1,-2,2,-7
2585,2,-7,1,-2,-2,-2,1,-8
2586,1,-7,2,-2,-3,-2,1,-9
2587,1,-6,4,-3,-3,-1,-1,-9
2588,1,-6,6,-3,-3,1,-1,-10
2589,2,-5,8,-3,-3,4,-1,-10
2590,3,-3,9,-2,-1,7,-1,-8
2591,5,-1,10,0,3,9,1,-5
2592,7,3,10,1,6,11,2,0
2593,8,5,10,3,10,12,4,6
2594,10,7,9,4,14,13,5,11
2595,11,7,7,5,15,12,5,14
2596,12,6,4,5,14,9,6,16
2597,12,4,0,6,12,4,6,16
2598,12,1,-5,6,9,-2,6,14
2599,11,-2,-8,6,6,-8,5,12
2600,10,-4,-10,6,3,-12,5,9
2601,8,-5,-11,6,1,-14,4,7
2602,6,-5,-11,5,-2,-16,3,5
2603,4,-6,-11,4,-5,-16,2,2
2604,2,-5,-9,4,-8,-14,2,-1
2605,1,-4,-7,4,-9,-11,3,-3
2606,1,-2,-5,5,-9,-7,4,-3
2607,1,0,-2,5,-9,-2,5,-2
2608,1,2,2,5,-9,2,6,-2
2609,2,4,5,5,-9,5,6,-2
2610,2,4,7,5,-10,6,6,-2
2611,2,3,8,5,-10,7,5,-2
2612,3,2,8,5,-10,7,4,-2
2613,3,2,9,5,-8,8,3,-1
2614,4,1,9,5,-6,8,3,1
2615,4,1,7,4,-4,7,2,3
2616,4,1,5,4,-2,6,2,3
2617,4,0,2,3,0,3,2,4
2618,4,-1,-1,3,2,0,3,4
2619,4,-2,-4,3,3,-3,3,5
2620,4,-3,-6,4,4,-6,4,6
2621,4,-3,-6,4,4,-9,3,8
2622,4,-3,-5,4,3,-12,3,8
2623,3,-3,-3,4,2,-15,2,9
2624,2,-3,-2,3,2,-17,1,9
2625,0,-3,-2,2,3,-17,1,9
2626,-1,-3,-2,2,4,-16,0,9
2627,-3,-2,0,1,5,-13,-1,8
2628,-4,-1,2,0,4,-9,-2,8
2629,-5,-1,5,-1,3,-4,-2,5
2630,-6,-1,8,-2,0,0,-3,2
2631,-6,-3,9,-3,-3,3,-3,-3
2632,-6,-5,10,-3,-7,5,-3,-8
2633,-5,-8,10,-4,-9,7,-3,-12
2634,-5,-10,9,-4,-11,8,-3,-16
2635,-5,-12,9,-4,-12,9,-3,-19
2636,-5,-13,9,-3,-12,10,-4,-19
2637,-5,-13,10,-3,-11,10,-5,-18
2638,-5,-12,11,-3,-10,9,-5,-15
2639,-4,-10,12,-2,-7,7,-5,-10
2640,-2,-8,11,-1,-3,4,-4,-5
2641,0,-5,9,0,2,1,-2,1
2642,1,-3,6,2,6,-2,0,7
2643,3,1,2,4,9,-4,2,12
2644,4,3,-2,6,12,-6,4,16
2645,5,4,-5,7,13,-9,5,17
2646,6,4,-7,8,12,-11,6,17
2647,6,3,-8,7,11,-13,6,15
2648,5,1,-9,5,8,-16,6,12
2649,4,-2,-10,3,5,-17,4,8
2650,2,-4,-12,0,2,-17,2,5
2651,0,-5,-13,-3,1,-17,-1,2
2652,-2,-6,-13,-5,-1,-15,-3,-1
2653,-3,-7,-13,-6,-2,-13,-3,-3
2654,-3,-7,-11,-6,-3,-10,-4,-5
2655,-3,-6,-8,-6,-4,-7,-3,-5
2656,-2,-5,-5,-5,-4,-3,-3,-5
2657,-2,-4,-3,-4,-5,0,-3,-5
2658,-2,-4,-1,-4,-6,3,-3,-6
2659,-2,-4,1,-5,-6,6,-3,-6
2660,-3,-3,4,-5,-6,8,-3,-7
2661,-3,-2,8,-6,-4,10,-3,-6
2662,-4,0,12,-6,-3,11,-4,-4
2663,-4,3,16,-6,-1,12,-4,-1
2664,-4,6,17,-5,2,12,-4,3
2665,-3,8,15,-4,5,11,-4,6
2666,-2,10,11,-2,8,8,-3,9
2667,-1,12,7,-1,11,6,-2,12
2668,-1,13,4,0,14,3,-1,14
2669,-1,13,1,0,16,0,-1,16
2670,-2,11,-4,-1,16,-4,-1,16
2671,-3,8,-8,-2,15,-9,-1,14
2672,-4,5,-11,-2,12,-15,-2,11
2673,-5,1,-13,-2,9,-20,-2,8
2674,-5,-2,-14,-2,5,-24,-3,5
2675,-6,-4,-14,-2,1,-25,-3,2
2676,-7,-6,-15,-2,-3,-24,-4,-2
2677,-8,-8,-17,-3,-6,-21,-5,-5
2678,-9,-10,-18,-4,-8,-17,-6,-7
2679,-10,-12,-17,-6,-11,-13,-8,-10
2680,-12,-13,-14,-8,-12,-9,-9,-12
2681,-12,-14,-10,-10,-14,-5,-10,-14
2682,-13,-16,-6,-11,-15,-1,-11,-16
2683,-13,-17,-3,-11,-16,3,-11,-19
2684,-12,-18,0,-10,-17,4,-10,-20
2685,-11,-17,2,-9,-17,6,-9,-21
2686,-10,-15,4,-6,-17,7,-7,-19
2687,-8,-12,5,-4,-15,7,-6,-16
2688,-8,-8,7,-2,-12,8,-5,-11
2689,-7,-3,9,0,-7,9,-5,-6
2690,-7,1,12,1,-3,10,-5,-1
2691,-7,5,15,2,1,11,-5,3
2692,-7,8,17,2,4,11,-6,6
2693,-6,9,17,1,7,11,-7,8
2694,-5,8,14,-1,9,10,-9,9
2695,-2,4,9,-3,10,8,-10,9
2696,0,0,4,-4,10,5,-11,9
2697,3,-5,-1,-5,9,1,-10,7
2698,6,-9,-4,-5,7,-3,-9,6
2699,7,-12,-6,-5,5,-6,-8,4
2700,8,-14,-7,-4,2,-8,-6,1
2701,7,-15,-8,-4,-1,-9,-5,-2
2702,6,-17,-8,-4,-5,-9,-4,-5
2703,6,-18,-7,-5,-9,-8,-3,-9
2704,5,-19,-4,-4,-12,-6,-3,-12
2705,5,-20,-1,-4,-15,-4,-2,-15
2706,5,-21,2,-3,-17,-2,-1,-17
2707,5,-21,3,-2,-18,1,1,-18
2708,6,-21,4,0,-18,3,2,-19
2709,6,-19,4,1,-16,4,2,-18
2710,6,-17,6,1,-13,5,1,-16
2711,6,-14,8,1,-10,6,1,-13
2712,6,-10,11,0,-6,8,0,-10
2713,7,-7,14,-1,-2,9,-1,-7
2714,7,-5,17,-1,2,10,-1,-4
2715,7,-1,19,0,4,12,-1,-1
2716,7,2,20,1,6,15,-1,2
2717,7,6,21,3,8,17,0,4
2718,6,8,20,3,10,19,1,5
2719,6,8,18,2,12,19,1,6
2720,5,8,15,1,13,18,1,7
2721,5,6,12,-1,15,16,1,7
2722,4,4,11,-2,15,12,1,8
2723,4,2,10,-2,15,8,1,7
2724,4,0,9,-2,13,5,1,7
2725,4,-2,8,-2,11,3,1,6
2726,5,-3,4,-2,7,1,0,4
2727,6,-4,-1,-2,4,0,0,2
2728,7,-5,-6,-3,0,-1,-1,0
2729,8,-6,-10,-3,-3,0,-2,-3
2730,7,-6,-12,-3,-7,0,-2,-5
2731,6,-6,-12,-3,-10,1,-3,-7
2732,5,-7,-10,-3,-13,2,-3,-9
2733,5,-7,-7,-2,-14,3,-2,-10
2734,5,-6,-4,-1,-14,5,-1,-9
2735,5,-5,-1,0,-12,7,-1,-8
2736,4,-2,2,0,-9,10,-1,-5
2737,4,1,6,1,-6,12,-2,0
2738,3,6,10,1,-2,14,-3,5
2739,3,10,14,2,1,16,-4,10
2740,2,13,16,2,4,17,-5,14
2741,1,16,17,2,7,17,-6,17
2742,0,18,18,2,9,18,-6,17
2743,0,19,18,1,11,20,-6,17
2744,0,19,18,1,12,21,-6,16
2745,0,18,17,0,12,21,-5,14
2746,0,16,14,0,12,19,-4,11
2747,1,13,9,1,12,16,-3,9
2748,1,8,4,2,10,10,-2,5
2749,2,3,-2,2,8,3,-1,2
2750,3,-1,-7,3,5,-3,1,-2
2751,4,-5,-12,3,2,-8,2,-5
2752,4,-7,-17,3,-2,-10,3,-9
2753,5,-10,-22,4,-6,-12,4,-11
2754,5,-11,-26,4,-10,-13,5,-13
2755,6,-12,-27,5,-12,-14,5,-14
2756,6,-11,-26,5,-13,-13,6,-14
2757,5,-9,-22,4,-13,-12,5,-14
2758,5,-8,-18,3,-13,-10,5,-14
2759,5,-6,-13,2,-12,-6,4,-13
2760,4,-4,-9,1,-10,-2,4,-12
2761,3,-2,-4,-1,-8,3,2,-11
2762,1,1,1,-1,-4,6,1,-9
2763,-1,4,7,0,0,10,0,-5
2764,-2,7,12,1,4,12,-1,-1
2765,-3,10,16,2,8,13,-1,4
2766,-3,12,17,2,11,14,-1,7
2767,-3,13,17,3,14,13,0,9
2768,-2,13,15,2,15,12,1,9
2769,-1,12,11,2,15,11,2,9
2770,0,11,7,3,14,9,3,9
2771,2,9,2,4,13,6,4,9
2772,4,8,-3,6,13,2,5,10
2773,6,6,-9,7,12,-4,6,11
2774,7,4,-13,8,12,-10,7,12
2775,7,3,-15,9,13,-15,7,12
2776,6,1,-17,10,12,-19,7,10
2777,5,0,-17,9,10,-20,6,8
2778,3,0,-18,8,7,-20,5,4
2779,2,-1,-18,7,4,-18,3,1
2780,1,-1,-18,5,1,-16,2,-3
2781,0,-1,-18,3,-2,-14,1,-5
2782,0,1,-15,1,-4,-10,-1,-7
2783,0,2,-10,0,-4,-6,-2,-7
2784,0,4,-4,0,-3,-2,-2,-6
2785,0,7,2,0,-2,3,-2,-4
2786,0,9,7,1,0,6,-2,-2
2787,-1,11,11,1,2,9,-3,1
2788,-1,12,13,1,3,11,-4,3
2789,-1,12,14,2,5,12,-4,4
2790,-1,11,16,2,7,12,-4,5
2791,-1,9,16,1,8,12,-5,5
2792,-1,7,15,1,10,11,-4,4
2793,0,5,13,1,10,10,-4,4
2794,1,3,10,1,10,9,-3,3
2795,2,2,6,0,9,7,-2,1
2796,2,1,2,0,7,6,-1,0
2797,2,1,-2,-1,6,5,0,-1
2798,1,0,-5,0,4,3,1,-2
2799,0,-2,-8,0,2,0,0,-3
2800,-1,-4,-10,0,0,-4,-1,-4
2801,-3,-7,-12,-1,-2,-7,-3,-5
2802,-4,-9,-14,-2,-5,-11,-4,-8
2803,-6,-12,-16,-3,-8,-13,-5,-11
2804,-8,-14,-17,-4,-12,-13,-6,-15
2805,-9,-15,-15,-5,-16,-11,-6,-19
2806,-10,-16,-11,-5,-18,-8,-7,-21
2807,-11,-16,-6,-6,-19,-4,-8,-23
2808,-11,-14,-2,-7,-19,-1,-8,-24
2809,-11,-13,3,-7,-17,2,-9,-23
2810,-10,-11,7,-7,-14,4,-9,-21
2811,-9,-9,9,-6,-11,5,-8,-18
2812,-8,-6,10,-5,-7,6,-7,-13
2813,-7,-3,11,-3,-2,7,-7,-8
2814,-5,0,11,-2,3,8,-6,-4
2815,-4,2,10,-1,6,8,-5,-1
2816,-4,4,9,-2,9,9,-5,1
2817,-4,5,7,-3,11,9,-4,1
2818,-4,5,5,-4,13,9,-4,1
2819,-4,5,2,-5,14,8,-4,0
2820,-4,5,-3,-5,15,5,-3,-1
2821,-4,4,-8,-5,15,2,-3,-1
2822,-4,4,-10,-4,14,-1,-3,-1
2823,-5,3,-11,-3,13,-4,-2,-1
2824,-6,2,-10,-3,10,-8,-2,-3
2825,-6,0,-11,-3,8,-10,-2,-5
2826,-6,-3,-11,-3,4,-11,-3,-9
2827,-6,-5,-10,-4,1,-11,-3,-13
2828,-7,-8,-8,-4,-3,-11,-3,-17
2829,-7,-10,-6,-4,-7,-10,-2,-21
2830,-7,-12,-5,-3,-9,-9,-2,-23
2831,-7,-14,-4,-3,-11,-8,-2,-25
2832,-8,-15,-4,-2,-12,-8,-2,-26
2833,-8,-16,-6,-2,-12,-9,-2,-27
2834,-8,-15,-7,-3,-12,-10,-2,-26
2835,-8,-14,-8,-3,-10,-10,-3,-24
2836,-8,-13,-8,-3,-9,-10,-4,-22
2837,-8,-11,-8,-4,-6,-9,-5,-19
2838,-8,-9,-8,-4,-4,-8,-5,-15
2839,-8,-6,-7,-4,-1,-7,-5,-11
2840,-7,-3,-7,-4,2,-7,-5,-8
2841,-6,-1,-7,-4,4,-7,-4,-6
2842,-6,0,-7,-4,6,-7,-4,-4
2843,-6,1,-8,-5,7,-7,-5,-2
2844,-6,2,-7,-6,7,-8,-5,-1
2845,-5,1,-7,-7,6,-9,-5,-2
2846,-5,-1,-8,-7,5,-11,-5,-3
2847,-4,-3,-10,-7,4,-15,-4,-4
2848,-3,-5,-15,-6,3,-18,-2,-5
2849,-2,-6,-19,-6,0,-19,-1,-7
2850,-2,-6,-22,-6,-4,-18,-1,-8
2851,-3,-7,-23,-5,-10,-12,-1,-9
2852,-4,-7,-23,-5,-19,-5,-1,-11
2853,-5,-8,-21,-5,-27,2,-2,-13
2854,-6,-10,-19,-5,-34,8,-2,-16
2855,-7,-12,-19,-5,-39,12,-2,-19
2856,-8,-12,-18,-5,-42,14,-3,-21
2857,-8,-12,-15,-5,-42,16,-3,-22
2858,-8,-11,-12,-6,-42,18,-4,-21
2859,-8,-10,-9,-7,-41,21,-5,-19
2860,-8,-8,-5,-9,-38,23,-7,-16
2861,-8,-5,-3,-10,-35,25,-7,-12
2862,-8,-3,-2,-9,-30,26,-6,-8
2863,-7,1,-1,-8,-25,26,-4,-4
2864,-6,3,-3,-6,-21,26,-1,-1
2865,-5,6,-5,-4,-17,26,2,1
2866,-4,7,-6,-3,-15,25,3,4
2867,-3,8,-7,-2,-13,22,2,7
2868,-3,8,-9,-2,-13,20,1,8
2869,-2,7,-11,-2,-14,17,-1,9
2870,-1,5,-15,-3,-17,14,-2,8
2871,0,3,-19,-3,-20,11,-2,6
2872,1,1,-24,-3,-22,9,-1,4
2873,1,-1,-27,-3,-24,6,0,2
2874,1,-1,-28,-3,-24,3,0,1
2875,1,-1,-28,-4,-24,1,0,1
2876,0,-2,-26,-4,-22,1,0,0
2877,-1,-2,-23,-5,-22,2,-1,-2
2878,-2,-3,-19,-5,-22,4,-2,-4
2879,-3,-5,-15,-5,-22,7,-2,-7
2880,-3,-5,-11,-5,-23,9,-2,-9
2881,-4,-5,-8,-4,-23,10,-2,-9
2882,-3,-6,-7,-4,-22,10,-2,-9
2883,-3,-5,-7,-3,-21,10,-3,-8
2884,-3,-4,-7,-3,-19,10,-3,-7
2885,-2,-2,-8,-3,-17,10,-3,-4
2886,-2,1,-10,-2,-16,10,-2,-2
2887,-1,3,-11,-1,-14,11,-2,0
2888,-1,5,-11,-1,-14,11,-1,1
2889,-1,6,-10,-1,-13,11,-1,2
2890,-2,6,-8,-1,-11,12,-1,2
2891,-3,6,-5,-1,-11,12,0,2
2892,-4,6,-4,-1,-10,12,0,2
2893,-4,5,-4,-1,-10,12,1,2
2894,-4,5,-6,0,-10,11,2,2
2895,-5,5,-7,0,-11,10,2,2
2896,-4,5,-8,1,-10,8,3,4
2897,-4,6,-7,2,-9,5,3,5
2898,-4,8,-6,3,-7,3,4,7
2899,-3,9,-5,4,-5,0,5,9
2900,-3,11,-6,4,-4,-1,6,9
2901,-2,12,-8,4,-4,-2,6,9
2902,-2,12,-10,4,-5,-2,5,8
2903,-3,11,-11,3,-6,-2,4,6
2904,-3,11,-10,3,-8,-1,3,4
2905,-4,10,-8,2,-9,1,2,3
2906,-4,10,-5,2,-10,4,2,2
2907,-4,9,-2,2,-9,6,1,1
2908,-4,9,0,3,-7,9,1,1
2909,-3,8,3,3,-5,11,0,2
2910,-3,7,6,4,-3,12,-1,3
2911,-4,7,9,3,-2,12,-1,3
2912,-4,7,12,2,0,11,-2,4
2913,-5,7,14,1,1,11,-3,5
2914,-5,8,13,-1,1,12,-3,6
2915,-4,8,12,-2,2,13,-3,6
2916,-4,8,9,-3,3,14,-2,7
2917,-3,8,7,-4,4,14,-1,8
2918,-3,8,5,-4,4,13,-1,8
2919,-3,8,3,-5,4,10,-1,8
2920,-3,9,0,-5,4,7,-1,9
2921,-3,9,-3,-5,4,3,-2,10
2922,-3,10,-5,-4,4,0,-2,11
2923,-2,11,-6,-2,5,-2,-1,13
2924,-1,11,-6,-1,6,-3,-1,14
2925,-1,12,-5,0,6,-3,0,14
2926,0,12,-2,1,6,-2,1,14
2927,1,12,1,2,5,0,1,13
2928,1,12,3,2,4,2,1,12
2929,2,12,3,3,4,3,2,11
2930,1,11,2,4,3,3,2,9
2931,0,11,-1,4,1,3,2,7
2932,-2,11,-2,5,-1,3,2,5
2933,-4,12,-3,4,-2,4,2,3
2934,-7,13,-2,4,-3,6,3,2
2935,-9,14,-1,3,-3,7,3,2
2936,-10,16,0,3,-2,7,3,3
2937,-10,17,1,3,-1,7,4,5
2938,-10,17,1,3,0,7,4,7
2939,-9,18,2,4,2,7,4,9
2940,-9,19,4,4,4,8,4,11
2941,-10,21,5,4,6,9,3,12
2942,-11,21,5,3,7,9,2,13
2943,-11,20,5,2,7,8,0,13
2944,-11,18,5,1,6,5,-1,11
2945,-11,16,3,1,3,2,-1,9
2946,-10,14,0,1,1,-1,-1,6
2947,-10,12,-4,1,-2,-4,-1,4
2948,-11,12,-8,1,-4,-6,0,2
2949,-11,11,-12,2,-5,-9,1,1
2950,-11,11,-16,1,-5,-11,0,1
2951,-11,11,-17,1,-5,-12,0,1
2952,-12,12,-16,0,-4,-12,-1,1
2953,-12,12,-14,0,-4,-11,-1,0
2954,-13,12,-11,0,-4,-8,-2,-1
2955,-13,11,-7,0,-4,-5,-2,-3
2956,-13,10,-4,0,-4,-2,-2,-4
2957,-13,9,-1,0,-3,1,-1,-5
2958,-12,8,2,1,-2,4,-1,-6
2959,-11,8,3,1,-2,5,-1,-6
2960,-10,7,3,0,-1,6,0,-7
2961,-10,6,3,0,-2,7,0,-7
2962,-10,6,3,-1,-2,8,1,-8
2963,-9,6,2,-1,-2,9,2,-8
2964,-9,7,1,0,-2,9,3,-7
2965,-9,8,-1,1,-1,9,4,-6
2966,-9,9,-2,2,0,8,5,-5
2967,-9,10,-3,3,1,6,5,-3
2968,-10,12,-3,3,3,5,6,-1
2969,-9,12,-3,4,5,4,6,2
2970,-8,13,-3,3,6,4,6,3
2971,-7,13,-5,3,6,3,6,4
2972,-6,13,-8,3,5,0,6,4
2973,-5,12,-12,2,2,-3,6,4
2974,-5,12,-16,2,1,-5,5,3
2975,-5,12,-19,2,-1,-6,4,3
2976,-5,11,-18,2,-1,-6,3,3
2977,-6,11,-16,2,-2,-5,3,3
2978,-6,10,-13,2,-3,-5,2,3
2979,-6,9,-12,2,-5,-5,2,2
2980,-6,8,-11,2,-7,-6,2,0
2981,-6,7,-11,1,-8,-6,2,-1
2982,-6,7,-10,1,-8,-5,2,-2
2983,-6,7,-9,1,-7,-3,1,-2
2984,-6,7,-8,1,-5,-1,1,-2
2985,-6,7,-7,0,-4,1,1,-2
2986,-6,7,-5,-1,-3,3,0,-2
2987,-6,7,-3,-2,-3,5,-1,-2
2988,-7,7,-2,-3,-2,7,-2,-2
2989,-6,7,-1,-3,-2,8,-2,-1
2990,-6,8,0,-3,-2,9,-2,0
2991,-6,8,1,-1,-1,9,-2,2
2992,-5,9,1,1,0,10,-2,4
2993,-4,10,0,3,1,10,-2,7
2994,-3,12,0,5,1,11,-1,9
2995,-2,13,1,6,2,11,-1,11
2996,-1,13,2,5,1,11,0,11
2997,-1,12,1,4,0,9,0,10
2998,-1,10,-1,2,-2,6,1,8
2999,-2,7,-2,1,-4,3,1,4
3000,-2,4,-4,1,-6,-1,1,2
3001,-3,2,-6,1,-7,-4,1,-1
3002,-4,0,-8,1,-9,-7,0,-2
3003,-4,-1,-10,2,-10,-8,0,-3
3004,-4,-1,-12,3,-10,-8,0,-4
3005,-4,-2,-12,4,-10,-6,0,-4
3006,-3,-2,-12,5,-9,-5,0,-5
3007,-3,-3,-11,5,-8,-4,0,-6
3008,-3,-3,-9,4,-7,-3,0,-6
3009,-3,-3,-6,4,-5,-3,-1,-5
3010,-4,-2,-5,4,-4,-2,-2,-4
3011,-4,-1,-4,3,-3,-1,-3,-2
3012,-5,1,-3,1,-3,1,-4,-1
3013,-6,3,-2,-1,-1,3,-4,1
3014,-6,4,-2,-3,0,4,-5,2
3015,-6,5,-2,-4,2,4,-5,3
3016,-5,7,1,-5,5,5,-5,5
3017,-4,8,4,-4,7,5,-5,7
3018,-4,10,7,-3,10,5,-4,10
3019,-4,11,6,-2,11,3,-3,11
3020,-5,10,2,-2,11,0,-2,11
3021,-6,8,-3,-2,9,-4,-2,9
3022,-7,6,-8,-3,6,-7,-3,6
3023,-8,4,-11,-3,4,-10,-4,3
3024,-9,3,-10,-3,1,-11,-5,2
3025,-10,3,-8,-4,-1,-11,-6,1
3026,-10,2,-7,-5,-2,-11,-7,1
3027,-11,1,-9,-6,-4,-12,-8,-1
3028,-12,0,-11,-9,-6,-13,-9,-4
3029,-13,-3,-13,-11,-8,-15,-10,-8
3030,-15,-6,-15,-13,-11,-16,-11,-14
3031,-16,-9,-17,-13,-13,-16,-12,-19
3032,-17,-12,-17,-14,-16,-16,-12,-23
3033,-18,-14,-17,-14,-18,-15,-11,-26
3034,-18,-16,-17,-15,-19,-15,-11,-28
3035,-18,-16,-17,-16,-19,-15,-11,-29
3036,-18,-16,-15,-18,-18,-14,-12,-28
3037,-19,-15,-13,-20,-16,-12,-14,-26
3038,-20,-13,-11,-22,-14,-9,-16,-24
3039,-20,-11,-8,-22,-10,-6,-17,-22
3040,-20,-8,-5,-22,-7,-3,-17,-19
3041,-20,-6,-2,-21,-5,-1,-17,-17
3042,-21,-4,-2,-21,-3,0,-17,-16
3043,-21,-3,-2,-20,-2,0,-16,-14
3044,-22,-3,-2,-20,-2,-1,-17,-13
3045,-23,-2,-2,-21,-1,-2,-17,-11
3046,-22,-2,-2,-21,-1,-3,-17,-11
3047,-20,-3,-3,-21,-2,-6,-17,-11
3048,-19,-6,-6,-21,-4,-8,-16,-12
3049,-18,-8,-9,-20,-7,-11,-16,-15
3050,-18,-11,-13,-19,-10,-14,-16,-18
3051,-18,-14,-17,-18,-12,-17,-15,-22
3052,-18,-15,-19,-17,-14,-19,-14,-25
3053,-18,-16,-20,-16,-14,-19,-13,-25
3054,-18,-15,-21,-15,-14,-18,-12,-25
3055,-18,-15,-22,-14,-13,-17,-12,-24
3056,-18,-14,-22,-14,-11,-16,-12,-23
3057,-18,-14,-22,-13,-10,-15,-13,-21
3058,-18,-12,-19,-13,-9,-13,-13,-19
3059,-18,-11,-15,-13,-8,-11,-14,-16
3060,-18,-9,-9,-13,-7,-9,-15,-14
3061,-18,-6,-3,-12,-5,-7,-16,-10
3062,-18,-3,2,-12,-3,-5,-17,-6
3063,-17,-1,4,-12,-1,-5,-17,-4
3064,-16,0,3,-12,1,-5,-17,-3
3065,-15,1,1,-11,1,-6,-16,-3
3066,-14,-1,-3,-10,1,-7,-13,-5
3067,-12,-2,-7,-9,1,-8,-11,-7
3068,-12,-3,-10,-7,-1,-8,-9,-8
3069,-11,-4,-12,-7,-2,-9,-7,-9
3070,-11,-4,-14,-7,-3,-11,-6,-10
3071,-10,-5,-17,-7,-4,-13,-6,-11
3072,-10,-7,-21,-8,-5,-17,-6,-12
3073,-10,-9,-26,-9,-6,-20,-6,-14
3074,-10,-11,-29,-9,-7,-23,-6,-14
3075,-9,-12,-30,-9,-7,-25,-6,-14
3076,-9,-13,-30,-8,-7,-26,-6,-14
3077,-8,-13,-28,-8,-7,-25,-6,-13
3078,-8,-13,-26,-7,-7,-25,-5,-13
3079,-8,-13,-24,-7,-8,-24,-5,-12
3080,-8,-12,-24,-7,-7,-25,-4,-12
3081,-8,-11,-24,-7,-7,-25,-4,-11
3082,-8,-10,-23,-6,-6,-24,-3,-11
3083,-8,-9,-22,-6,-5,-23,-3,-10
3084,-8,-7,-19,-4,-2,-21,-2,-7
3085,-7,-4,-15,-3,1,-18,-2,-4
3086,-7,-2,-12,-3,3,-16,-1,-2
3087,-6,0,-10,-3,4,-14,-1,0
3088,-6,1,-9,-3,5,-13,-1,0
3089,-6,-1,-10,-3,4,-13,-2,-2
3090,-5,-3,-11,-3,3,-13,-2,-4
3091,-5,-5,-11,-3,2,-12,-2,-6
3092,-5,-7,-10,-2,1,-12,-2,-7
3093,-6,-7,-10,-2,0,-13,-2,-8
3094,-6,-7,-10,-2,0,-13,-3,-8
3095,-6,-7,-12,-3,0,-13,-3,-7
3096,-6,-7,-12,-4,0,-12,-4,-7
3097,-5,-7,-10,-6,0,-11,-5,-7
3098,-5,-7,-7,-6,-1,-9,-5,-7
3099,-5,-8,-4,-6,-2,-8,-6,-7
3100,-5,-8,-2,-6,-3,-7,-6,-8
3101,-5,-8,-1,-6,-4,-7,-6,-8
3102,-4,-9,-1,-5,-4,-7,-6,-8
3103,-4,-10,-2,-4,-5,-7,-6,-8
3104,-5,-10,-1,-4,-4,-7,-7,-7
3105,-5,-10,2,-4,-3,-7,-7,-5
3106,-5,-9,4,-4,-1,-7,-8,-4
3107,-5,-8,6,-5,1,-6,-9,-2
3108,-5,-7,6,-5,3,-5,-9,-1
3109,-5,-6,4,-6,4,-5,-10,0
3110,-5,-4,3,-6,5,-4,-9,2
3111,-4,-1,2,-5,6,-2,-9,4
3112,-3,2,2,-3,7,-2,-7,7
3113,-2,5,3,-2,9,-1,-5,9
3114,0,7,3,0,10,-1,-4,11
3115,1,7,3,1,10,0,-2,11
3116,2,6,2,2,9,1,-1,10
3117,1,4,1,2,7,1,-1,7
3118,1,2,1,1,5,1,-2,4
3119,-1,0,1,1,3,1,-2,1
3120,-2,-1,2,1,2,0,-3,-1
3121,-3,-2,2,1,1,-1,-4,-2
3122,-3,-3,2,1,1,-2,-4,-2
3123,-3,-4,2,1,1,-3,-4,-2
3124,-3,-4,1,1,1,-3,-4,-1
3125,-2,-4,1,1,2,-3,-4,-1
3126,-2,-3,1,-1,2,-3,-4,-1
3127,-1,-3,2,-1,2,-3,-4,-1
3128,0,-2,1,-2,3,-2,-3,0
3129,1,-2,0,-2,3,-2,-2,0
3130,2,-2,-1,-1,3,-1,-1,1
3131,2,-2,-2,-1,2,0,-1,1
3132,1,-2,-3,-1,2,0,0,1
3133,0,-1,-1,-1,2,1,-1,2
3134,0,1,1,-1,1,1,-1,2
3135,0,2,2,-1,1,2,-1,3
3136,0,3,1,-2,0,3,-1,3
3137,0,3,-2,-1,0,3,0,3
3138,0,3,-4,-1,-1,2,0,2
3139,1,2,-5,0,-2,2,1,0
3140,1,1,-5,1,-3,1,2,-2
3141,1,-1,-5,1,-4,0,2,-4
3142,0,-3,-4,1,-5,-1,2,-6
3143,0,-3,-1,0,-5,-1,2,-7
3144,-1,-3,2,0,-5,-1,1,-8
3145,-1,-3,3,-1,-5,-1,1,-7
3146,-2,-2,4,-1,-4,-1,1,-6
3147,-2,-1,3,-1,-3,-1,0,-5
3148,-3,0,2,-1,-2,-1,-1,-4
3149,-3,1,1,-1,-1,0,-3,-2
3150,-4,1,3,-1,0,0,-4,-1
3151,-4,1,6,-2,0,1,-5,0
3152,-4,1,8,-2,-1,2,-5,-1
3153,-4,1,7,-2,-2,2,-4,-2
3154,-4,0,4,-2,-4,2,-3,-4
3155,-4,-1,0,-2,-5,1,-3,-5
3156,-4,-2,-3,-2,-7,0,-3,-7
3157,-5,-3,-3,-3,-8,-1,-4,-8
3158,-6,-3,-2,-3,-9,-1,-5,-9
3159,-7,-3,0,-4,-9,0,-5,-9
3160,-7,-4,0,-4,-8,0,-6,-9
3161,-7,-4,-1,-5,-7,0,-6,-9
3162,-7,-3,-2,-5,-5,0,-7,-8
3163,-6,-2,-4,-5,-4,-1,-6,-7
3164,-6,-2,-5,-5,-3,-2,-6,-6
3165,-5,-1,-5,-5,-2,-3,-6,-5
3166,-4,0,-4,-4,-1,-3,-6,-3
3167,-4,1,-1,-5,1,-3,-6,-2
3168,-4,2,2,-5,2,-2,-7,-1
3169,-3,4,4,-5,3,-2,-7,1
3170,-3,5,5,-5,4,-1,-6,2
3171,-2,7,4,-3,4,-1,-5,4
3172,-1,8,3,-2,5,-1,-4,6
3173,-1,8,2,0,5,0,-4,7
3174,-2,9,1,1,4,0,-3,7
3175,-2,9,0,2,4,-1,-2,6
3176,-2,9,-1,2,4,-1,-2,5
3177,-2,9,-2,2,4,-1,-2,4
3178,-2,8,-3,3,4,-1,-2,4
3179,-2,8,-2,3,4,-1,-1,3
3180,-1,7,-1,2,4,1,-1,2
3181,-2,6,1,2,4,2,-1,2
3182,-2,6,2,1,4,3,-1,1
3183,-3,6,3,-1,5,2,-2,0
3184,-4,6,4,-2,5,1,-2,0
3185,-4,6,5,-2,6,1,-2,1
3186,-4,7,6,-2,6,1,-2,2
3187,-4,7,6,-2,6,1,-2,4
3188,-4,8,6,-1,6,1,-1,5
3189,-3,9,5,1,6,1,0,6
3190,-1,10,6,2,6,0,2,6
3191,1,10,6,3,7,-1,4,6
3192,2,10,6,4,7,-1,6,5
3193,2,10,5,4,8,-1,7,5
3194,2,10,4,4,8,-1,7,5
3195,2,9,3,4,8,-1,6,5
3196,2,9,3,3,8,-1,6,6
3197,1,10,5,3,8,0,5,8
3198,1,9,7,2,8,1,4,9
3199,1,9,10,2,7,1,4,9
3200,1,8,11,1,7,2,3,8
3201,2,8,9,0,6,2,3,8
3202,3,8,7,0,6,2,3,8
3203,3,8,6,0,5,2,3,7
3204,4,8,5,0,4,3,3,7
3205,4,8,5,0,4,4,3,7
3206,3,8,6,0,3,5,2,7
3207,3,9,7,0,2,6,2,7
3208,3,10,8,0,3,7,2,8
3209,3,12,9,0,3,8,3,9
3210,4,13,11,1,5,8,3,11
3211,5,13,12,1,6,9,4,13
3212,6,14,12,1,8,8,3,16
3213,6,14,11,1,9,7,2,17
3214,7,14,9,1,9,7,1,18
3215,7,14,7,1,9,6,1,18
3216,7,14,6,2,8,5,2,17
3217,7,13,5,2,8,3,3,16
3218,8,13,5,3,8,2,5,16
3219,10,13,6,4,8,2,7,16
3220,11,14,7,5,9,3,8,17
3221,12,14,9,6,9,4,9,18
3222,13,15,10,5,10,6,10,19
3223,13,15,10,5,11,7,10,19
3224,13,15,8,5,11,8,10,18
3225,12,15,6,4,11,9,9,18
3226,12,15,6,4,11,10,8,18
3227,12,16,8,5,11,10,7,18
3228,11,17,10,5,10,10,7,18
3229,11,17,11,5,9,10,6,18
3230,10,17,11,5,8,9,6,18
3231,10,17,10,5,8,8,6,17
3232,11,17,8,6,8,8,6,17
3233,10,17,8,6,9,8,6,17
3234,10,17,7,5,9,7,5,17
3235,9,17,7,3,9,7,4,16
3236,8,15,5,2,8,6,3,14
3237,7,12,4,0,7,5,2,12
3238,6,11,3,-2,6,5,2,11
3239,6,10,3,-2,5,6,2,10
3240,6,11,4,-3,5,7,2,11
3241,5,12,5,-3,5,8,4,11
3242,4,13,5,-2,5,8,6,11
3243,3,13,4,-1,5,7,8,11
3244,2,12,3,1,5,5,10,11
3245,1,12,3,2,6,3,11,12
3246,1,12,3,4,6,1,11,13
3247,2,12,3,4,6,0,12,14
3248,3,12,3,5,7,-2,12,15
3249,3,13,4,6,6,-3,13,16
3250,3,13,4,7,6,-5,13,17
3251,3,13,4,7,5,-6,13,16
3252,3,12,3,8,4,-5,13,15
3253,4,11,1,8,4,-4,13,14
3254,4,10,-2,8,4,-2,13,13
3255,5,10,-3,7,4,-1,13,12
3256,6,10,-3,7,4,1,13,12
3257,7,10,-1,7,4,2,13,12
3258,8,11,3,7,4,3,13,12
3259,8,12,5,7,5,3,13,12
3260,9,13,6,7,5,4,13,12
3261,8,13,6,7,5,5,13,12
3262,8,14,5,6,5,6,12,12
3263,7,13,5,5,5,7,11,11
3264,5,12,5,4,4,9,10,10
3265,4,10,6,3,2,10,9,8
3266,3,8,6,2,1,11,8,7
3267,3,6,5,1,-1,12,7,5
3268,2,4,2,-1,-3,11,7,3
3269,2,4,0,-2,-4,9,6,2
3270,2,4,-1,-3,-4,8,6,1
3271,2,5,1,-4,-4,7,6,2
3272,3,6,4,-3,-3,7,6,3
3273,3,7,7,-2,-2,8,7,4
3274,4,8,9,-2,0,9,8,5
3275,4,9,9,-1,1,9,9,5
3276,4,9,8,-1,2,9,8,6
3277,4,9,5,-1,2,9,8,6
3278,3,9,4,-1,2,9,8,6
3279,2,9,5,-1,2,10,7,6
3280,1,8,7,-1,2,10,6,6
3281,0,7,10,-1,1,10,6,5
3282,-1,6,12,-1,1,9,5,5
3283,0,6,11,0,1,7,6,5
3284,1,6,10,1,1,5,6,6
3285,3,7,9,4,1,3,7,7
3286,4,7,8,6,2,2,8,8
3287,6,8,6,7,4,3,9,8
3288,7,8,5,7,6,4,10,9
3289,7,8,5,8,8,6,10,10
3290,8,10,6,8,10,7,11,12
3291,10,11,9,9,11,9,13,13
3292,11,12,12,11,13,9,15,16
3293,12,12,14,12,15,10,16,17
3294,13,13,16,12,16,12,16,18
3295,12,13,17,11,18,15,15,18
3296,11,13,18,9,18,17,13,17
3297,10,13,20,8,18,18,11,16
3298,9,12,21,6,17,19,10,15
3299,9,12,22,5,16,19,9,14
3300,8,13,22,5,15,19,8,13
3301,8,13,21,5,14,20,8,12
3302,7,13,21,5,14,20,8,11
3303,6,13,22,5,14,21,8,10
3304,5,13,22,6,14,20,7,9
3305,5,13,21,5,14,18,7,8
3306,4,12,19,5,13,17,7,7
3307,4,10,17,4,11,15,7,4
3308,4,8,15,3,10,14,7,2
3309,3,7,14,3,8,14,7,-1
3310,2,6,14,2,7,13,6,-3
3311,0,5,14,1,6,12,5,-4
3312,-1,5,15,-1,5,11,3,-5
3313,-2,5,16,-2,5,11,2,-5
3314,-2,4,17,-3,6,12,1,-5
3315,-2,4,17,-4,6,12,0,-6
3316,-3,3,16,-5,5,12,-1,-7
3317,-4,2,15,-6,5,13,-2,-8
3318,-4,1,13,-7,4,13,-3,-9
3319,-4,0,11,-8,3,13,-3,-9
3320,-4,-1,9,-7,1,14,-2,-10
3321,-4,-2,9,-6,0,14,-1,-11
3322,-5,-2,9,-5,-1,13,-1,-12
3323,-6,-3,9,-4,-1,12,-1,-13
3324,-6,-3,8,-4,0,10,-1,-13
3325,-7,-3,8,-4,2,8,-1,-12
3326,-7,-2,8,-5,3,6,-1,-10
3327,-6,-1,8,-5,4,5,-1,-8
3328,-5,1,9,-4,5,4,-1,-5
3329,-4,2,9,-4,5,4,-1,-3
3330,-3,2,9,-3,4,4,0,-2
3331,-2,2,9,-2,3,5,1,-1
3332,-1,3,8,-1,2,5,1,-1
3333,-1,3,6,0,1,6,2,-2
3334,0,2,4,1,0,6,2,-2
3335,1,2,4,1,-1,7,2,-2
3336,1,2,4,0,-1,7,3,-3
3337,2,1,6,1,-1,6,4,-3
3338,3,0,8,2,0,6,6,-3
3339,5,0,8,3,1,6,8,-3
3340,7,-1,5,5,0,5,9,-4
3341,9,-1,4,6,0,5,10,-4
3342,10,0,3,6,0,6,11,-4
3343,10,1,3,6,-1,8,11,-3
3344,10,2,5,6,-1,10,10,-2
3345,10,3,8,6,-1,12,10,-1
3346,11,4,10,6,-1,12,10,1
3347,13,4,12,6,-1,12,10,1
3348,13,5,13,6,-1,11,11,2
3349,13,5,14,6,-1,10,11,2
3350,13,5,16,6,-1,9,10,2
3351,12,5,16,6,0,9,10,2
3352,12,5,14,5,1,9,9,2
3353,11,5,11,4,1,8,8,3
3354,12,6,9,4,2,8,7,5
3355,12,7,9,3,3,8,7,6
3356,11,8,10,3,4,9,7,8
3357,11,9,12,3,5,9,6,10
3358,10,11,12,2,6,9,5,11
3359,10,13,12,2,7,8,4,12
3360,10,14,11,2,8,8,3,12
3361,9,15,10,1,9,8,2,12
3362,9,14,11,1,9,9,1,10
3363,8,13,12,-1,8,10,0,9
3364,7,12,14,-2,7,12,-1,6
3365,6,11,16,-3,6,12,-3,5
3366,5,10,16,-4,5,12,-4,3
3367,4,10,17,-4,4,12,-5,3
3368,4,10,19,-4,4,12,-5,3
3369,4,11,21,-4,5,12,-4,3
3370,4,10,22,-4,5,12,-2,4
3371,4,10,23,-4,6,12,-1,4
3372,4,9,22,-4,7,12,-1,4
3373,4,8,21,-5,7,12,-1,4
3374,3,7,20,-5,7,13,-2,4
3375,2,6,17,-5,5,13,-3,3
3376,1,4,15,-4,3,12,-4,2
3377,1,2,13,-4,1,11,-4,0
3378,0,1,13,-4,0,10,-4,-2
3379,-1,-1,14,-5,-1,8,-4,-2
3380,-1,-1,16,-6,0,8,-3,-3
3381,0,-2,17,-6,1,8,-2,-3
3382,0,-2,17,-6,1,8,-2,-3
3383,0,-3,15,-6,0,7,-1,-4
3384,0,-3,12,-6,-1,5,-2,-4
3385,-1,-2,10,-5,-1,3,-2,-3
3386,-2,-2,9,-5,-1,2,-3,-2
3387,-3,-1,9,-5,0,2,-3,0
3388,-4,-1,9,-5,1,2,-3,1
3389,-5,0,11,-5,2,2,-2,2
3390,-5,0,14,-6,3,2,-2,3
3391,-5,1,14,-6,3,1,-2,4
3392,-4,1,13,-6,4,1,-2,5
3393,-3,2,11,-6,5,2,-2,6
3394,-2,3,10,-5,5,3,-1,7
3395,-1,3,8,-4,5,4,0,7
3396,0,3,5,-3,4,5,1,6
3397,1,3,4,-3,3,6,1,5
3398,0,3,4,-3,2,6,1,4
3399,0,4,4,-2,2,6,1,4
3400,0,6,4,-2,3,4,1,6
3401,0,8,5,-1,4,1,1,7
3402,1,9,6,0,5,-3,1,9
3403,1,10,7,0,5,-6,1,9
3404,1,10,7,0,5,-8,0,9
3405,2,10,6,-1,4,-7,0,7
3406,2,8,4,-2,3,-6,-1,6
3407,1,7,3,-3,2,-3,-1,4
3408,1,5,1,-3,2,1,-1,2
3409,-1,4,-1,-3,1,3,-2,1
3410,-2,3,-3,-2,0,4,-2,-1
3411,-3,2,-2,-2,-1,4,-2,-3
3412,-4,1,-1,-1,-2,4,-2,-5
3413,-5,0,0,-1,-3,4,-2,-6
3414,-6,-1,1,-1,-3,2,-3,-7
3415,-6,-1,0,-1,-4,-2,-3,-8
3416,-5,-3,-1,-1,-4,-5,-3,-8
3417,-5,-4,-3,-2,-5,-8,-3,-9
3418,-5,-6,-4,-2,-5,-11,-4,-9
3419,-5,-7,-6,-2,-5,-12,-4,-9
3420,-5,-8,-6,-3,-5,-13,-5,-8
3421,-5,-8,-7,-3,-3,-13,-5,-7
3422,-5,-7,-7,-3,-2,-13,-4,-6
3423,-5,-5,-9,-3,-1,-12,-4,-5
3424,-6,-4,-10,-2,0,-10,-4,-4
3425,-6,-3,-10,-2,1,-9,-4,-4
3426,-6,-2,-9,-2,2,-7,-4,-3
3427,-5,-1,-7,-1,2,-6,-3,-1
3428,-3,0,-5,-1,3,-5,-3,1
3429,-3,1,-4,-1,3,-5,-3,1
3430,-3,1,-5,-1,3,-5,-2,1
3431,-3,1,-6,0,3,-6,-2,1
3432,-2,-1,-7,1,2,-6,-1,-1
3433,-2,-2,-6,3,1,-5,0,-2
3434,-1,-3,-2,4,1,-3,0,-2
3435,1,-3,1,5,1,-2,1,-1
3436,2,-2,2,6,2,-2,1,0
3437,3,-1,1,6,3,-2,1,1
3438,4,1,-2,8,4,-2,2,2
3439,6,3,-6,9,5,-2,4,4
3440,8,4,-9,11,7,-2,6,5
3441,9,5,-9,12,8,-2,7,6
3442,10,6,-9,13,8,-3,9,7
3443,11,6,-10,13,8,-4,10,7
3444,11,6,-12,13,7,-5,10,6
3445,12,6,-15,14,7,-5,12,6
3446,14,7,-17,16,8,-4,13,7
3447,16,8,-17,18,9,-2,14,9
3448,18,9,-15,20,11,0,16,12
3449,20,10,-12,22,11,0,17,14
3450,21,10,-9,23,11,-1,18,15
3451,21,9,-7,24,11,-2,18,14
3452,21,9,-7,23,10,-4,17,12
3453,19,8,-8,21,10,-5,15,11
3454,18,9,-9,20,10,-5,13,10
3455,16,10,-7,18,11,-3,12,10
3456,15,10,-6,18,11,-3,12,11
3457,14,10,-5,17,11,-4,12,11
3458,14,10,-5,17,12,-4,12,11
3459,13,9,-6,17,13,-5,12,12
3460,12,9,-11,17,14,-5,12,12
3461,11,9,-16,17,14,-5,11,12
3462,10,10,-18,17,15,-5,11,13
3463,10,10,-18,18,15,-4,11,13
3464,10,10,-16,18,15,-3,12,13
3465,10,10,-12,18,15,-2,12,14
3466,10,11,-8,19,16,-1,12,15
3467,10,12,-6,18,17,0,11,17
3468,10,12,-6,18,19,0,10,19
3469,11,13,-6,17,20,-1,9,20
3470,11,14,-7,17,20,-2,9,22
3471,10,15,-7,17,20,-3,8,22
3472,10,15,-7,16,18,-5,8,21
3473,10,15,-5,14,17,-7,8,20
3474,10,14,-4,14,15,-8,8,19
3475,10,12,-3,13,14,-7,8,18
3476,11,12,-3,13,13,-4,9,17
3477,12,11,-2,14,13,1,9,18
3478,12,11,-2,15,14,4,10,18
3479,12,11,-5,15,14,6,11,18
3480,11,10,-9,14,13,5,11,17
3481,10,10,-12,13,13,3,10,16
3482,9,10,-12,11,13,-1,9,16
3483,9,11,-9,10,14,-3,9,16
3484,8,12,-6,10,14,-5,9,17
3485,8,13,-3,9,15,-6,9,18
3486,9,15,-3,9,16,-7,10,18
3487,9,15,-6,9,16,-9,10,19
3488,10,16,-9,10,16,-11,9,19
3489,10,16,-11,10,16,-13,9,19
3490,10,16,-12,10,16,-13,8,19
3491,9,17,-10,10,16,-12,8,19
3492,8,17,-8,9,17,-10,7,19
3493,7,16,-5,9,19,-9,7,17
3494,7,15,-4,8,19,-7,6,16
3495,6,13,-3,7,20,-6,6,16
3496,7,13,-5,7,20,-6,7,16
3497,8,12,-8,8,19,-7,8,17
3498,9,12,-11,10,17,-9,9,17
3499,10,10,-13,12,15,-14,9,17
3500,10,9,-13,14,13,-18,10,16
3501,10,8,-13,15,11,-21,11,15
3502,10,7,-12,15,10,-22,11,14
3503,10,8,-12,15,9,-19,11,13
3504,11,9,-11,14,10,-13,10,14
3505,10,9,-10,13,11,-7,9,14
3506,10,10,-9,12,12,-2,9,13
3507,9,10,-7,11,13,1,9,12
3508,8,9,-5,11,13,1,10,11
3509,8,9,-4,12,12,-3,10,10
3510,8,8,-4,12,12,-8,11,9
3511,7,7,-4,12,12,-14,11,9
3512,6,7,-5,12,13,-20,10,10
3513,5,6,-6,11,13,-23,9,11
3514,4,5,-7,10,14,-24,7,12
3515,3,4,-9,9,14,-22,5,12
3516,3,3,-10,7,13,-18,4,10
3517,2,1,-11,5,11,-14,3,8
3518,1,-2,-12,3,8,-11,2,4
3519,1,-6,-14,1,5,-9,2,-1
3520,0,-8,-15,-2,1,-9,1,-4
3521,0,-10,-16,-3,-3,-10,1,-6
3522,1,-11,-16,-4,-7,-12,1,-8
3523,1,-10,-16,-4,-9,-12,2,-8
3524,2,-8,-16,-3,-9,-13,2,-8
3525,2,-7,-15,-3,-8,-13,3,-7
3526,1,-5,-14,-3,-6,-13,2,-6
3527,1,-3,-14,-4,-3,-12,1,-4
3528,-1,-1,-14,-5,1,-11,-2,-2
3529,-2,1,-13,-6,4,-9,-4,0
3530,-3,2,-12,-7,6,-6,-6,2
3531,-4,2,-9,-8,7,-4,-7,4
3532,-5,2,-7,-8,8,-3,-7,5
3533,-5,1,-6,-9,8,-3,-7,5
3534,-5,-1,-8,-9,7,-6,-7,4
3535,-6,-4,-11,-8,6,-10,-7,3
3536,-6,-8,-15,-8,4,-14,-7,2
3537,-6,-11,-18,-8,2,-16,-8,2
3538,-6,-13,-18,-8,-1,-16,-9,2
3539,-6,-14,-17,-8,-4,-15,-9,1
3540,-7,-15,-15,-9,-6,-12,-10,-1
3541,-8,-15,-13,-10,-9,-9,-11,-3
3542,-9,-16,-12,-12,-11,-7,-12,-6
3543,-11,-16,-11,-14,-12,-6,-13,-9
3544,-11,-15,-11,-15,-13,-5,-14,-12
3545,-11,-14,-12,-16,-13,-5,-15,-13
3546,-11,-13,-13,-17,-12,-5,-15,-12
3547,-11,-11,-15,-17,-11,-5,-16,-11
3548,-10,-7,-16,-17,-10,-4,-15,-8
3549,-10,-4,-16,-16,-8,-3,-14,-6
3550,-9,-1,-16,-15,-7,0,-13,-4
3551,-8,1,-15,-14,-5,2,-11,-3
3552,-8,2,-12,-14,-5,4,-10,-3
3553,-9,1,-9,-14,-5,5,-10,-4
3554,-10,-2,-6,-15,-5,5,-10,-5
3555,-10,-4,-3,-16,-7,5,-11,-6
3556,-11,-7,-1,-16,-8,5,-13,-7
3557,-12,-8,-1,-16,-9,5,-14,-8
3558,-12,-11,-1,-16,-11,3,-15,-10
3559,-13,-13,-2,-16,-12,2,-16,-13
3560,-13,-16,-1,-17,-13,3,-16,-16
3561,-12,-19,1,-17,-15,4,-16,-19
3562,-12,-21,3,-18,-17,6,-15,-21
3563,-12,-23,3,-18,-19,8,-15,-24
3564,-13,-24,2,-18,-21,8,-15,-26
3565,-13,-25,-1,-18,-22,7,-15,-27
3566,-14,-24,-3,-19,-22,5,-14,-28
3567,-14,-23,-3,-19,-21,3,-14,-28
3568,-15,-20,-1,-19,-19,3,-14,-26
3569,-16,-17,2,-19,-17,3,-14,-24
3570,-16,-14,4,-19,-16,4,-14,-22
3571,-17,-12,4,-18,-15,5,-14,-20
3572,-17,-11,5,-16,-15,6,-14,-18
3573,-18,-11,5,-15,-15,6,-13,-18
3574,-18,-12,4,-14,-16,6,-12,-18
3575,-19,-13,4,-13,-18,6,-11,-18
3576,-19,-14,4,-13,-19,5,-10,-19
3577,-19,-15,3,-14,-20,4,-11,-19
3578,-18,-16,1,-16,-20,3,-11,-19
3579,-18,-17,-1,-17,-20,3,-12,-18
3580,-18,-17,-2,-17,-19,3,-11,-17
3581,-17,-18,-1,-16,-19,2,-11,-17
3582,-16,-19,-1,-15,-19,2,-10,-18
3583,-15,-20,-1,-14,-20,1,-9,-19
3584,-15,-21,-2,-13,-21,0,-9,-21
3585,-14,-22,-5,-13,-23,-1,-9,-22
3586,-14,-22,-6,-13,-25,-3,-9,-23
3587,-14,-22,-7,-13,-26,-4,-9,-23
3588,-13,-21,-7,-12,-26,-5,-9,-22
3589,-12,-20,-7,-12,-25,-4,-8,-21
3590,-11,-18,-8,-10,-23,-1,-7,-19
3591,-9,-16,-7,-9,-21,2,-5,-17
3592,-8,-14,-5,-8,-19,4,-4,-15
3593,-8,-12,-2,-7,-18,6,-3,-14
3594,-8,-11,3,-7,-16,9,-2,-13
3595,-8,-10,7,-7,-16,10,-1,-13
3596,-7,-9,9,-7,-15,11,0,-12
3597,-6,-10,8,-7,-15,12,1,-13
3598,-5,-11,7,-7,-14,12,2,-13
3599,-4,-11,6,-6,-14,12,2,-13
3600,-3,-10,6,-6,-14,13,2,-12
3601,-3,-8,6,-6,-13,14,1,-10
3602,-2,-6,6,-6,-12,16,0,-8
3603,-3,-4,7,-6,-11,18,-1,-7
3604,-3,-3,6,-6,-11,18,-2,-6
3605,-4,-3,5,-6,-11,16,-3,-5
3606,-5,-3,3,-6,-12,14,-4,-5
3607,-6,-3,2,-6,-12,13,-5,-5
3608,-6,-2,2,-6,-12,12,-5,-5
3609,-6,-1,2,-5,-12,12,-4,-4
3610,-5,-1,3,-4,-11,11,-3,-4
3611,-3,-1,4,-3,-10,9,-2,-4
3612,-2,-2,4,-2,-10,7,0,-4
3613,-1,-3,3,-1,-10,5,0,-4
3614,-1,-4,3,0,-9,4,0,-4
3615,-1,-4,2,0,-9,4,-1,-3
3616,-2,-4,1,-1,-8,4,-1,-3
3617,-2,-5,0,-1,-7,6,-1,-4
3618,-3,-4,-2,-2,-6,6,-1,-3
3619,-3,-4,-4,-2,-5,6,0,-3
3620,-3,-3,-5,-2,-5,6,0,-2
3621,-3,-2,-5,-2,-5,6,0,-1
3622,-2,-1,-4,-2,-5,7,0,0
3623,-2,-1,-3,-2,-5,8,1,1
3624,-2,0,-2,-2,-5,9,1,1
3625,-1,0,-1,-2,-5,9,1,1
3626,-1,1,1,-2,-5,9,2,1
3627,-1,1,2,-2,-4,8,2,2
3628,-1,1,4,-3,-4,7,3,2
3629,0,1,6,-3,-4,7,4,2
3630,1,1,9,-2,-3,7,5,3
3631,2,0,10,0,-3,7,5,4
3632,3,1,9,2,-2,7,6,5
3633,4,1,8,3,0,5,6,6
3634,4,2,5,3,1,4,6,7
3635,4,2,3,3,3,3,6,7
3636,4,2,2,3,4,4,5,7
3637,4,2,3,2,4,5,4,8
3638,3,3,3,1,5,7,3,8
3639,3,4,3,1,5,9,3,9
3640,3,5,3,0,6,10,2,10
3641,3,6,4,1,6,9,2,10
3642,3,6,5,1,7,8,2,11
3643,3,5,5,2,7,6,2,10
3644,3,4,5,2,6,4,2,9
3645,3,2,4,2,6,4,2,8
3646,2,1,3,2,5,4,2,7
3647,2,0,4,2,5,5,2,7
3648,2,-1,5,2,6,5,1,7
3649,2,1,6,2,7,4,0,8
3650,3,2,8,2,8,4,0,9
3651,4,3,9,3,10,4,0,11
3652,4,4,9,4,11,5,1,12
3653,5,4,9,5,12,5,2,12
3654,4,4,8,6,12,5,2,12
3655,3,4,6,6,11,5,2,11
3656,2,3,4,5,10,3,1,9
3657,1,2,3,4,8,1,0,8
3658,1,1,3,4,5,0,-1,7
3659,1,-1,4,3,4,0,-2,6
3660,1,-2,5,3,2,-1,-3,5
3661,2,-2,4,4,1,-2,-3,5
3662,2,-3,1,4,1,-3,-4,5
3663,2,-4,-2,3,2,-4,-4,4
3664,1,-4,-3,2,2,-5,-4,3
3665,0,-3,-2,1,3,-6,-4,3
3666,-1,-2,1,0,4,-6,-4,3
3667,-1,-1,4,0,4,-5,-3,3
3668,-1,-1,6,1,4,-4,-2,3
3669,-1,-1,6,2,5,-3,0,2
3670,0,-1,3,4,4,-2,2,1
3671,1,-2,-1,4,4,-2,3,0
3672,2,-2,-5,4,4,-4,5,0
3673,2,-1,-8,4,4,-6,5,1
3674,3,0,-11,4,4,-8,6,2
3675,3,1,-11,4,5,-9,6,4
3676,3,2,-9,4,5,-9,5,5
3677,3,2,-5,3,5,-7,5,7
3678,3,3,-2,3,5,-6,5,7
3679,3,3,1,3,4,-5,4,7
3680,2,3,3,3,4,-4,4,7
3681,2,4,6,3,3,-1,4,7
3682,2,4,8,3,3,3,4,6
3683,2,5,10,4,4,6,4,6
3684,2,5,10,4,4,8,5,6
3685,3,6,8,4,4,8,5,6
3686,3,5,5,4,3,6,5,5
3687,2,4,1,3,3,4,5,4
3688,2,2,-1,3,3,2,5,3
3689,3,2,-1,3,3,1,5,3
3690,5,2,-1,4,3,2,6,3
3691,6,2,-1,5,3,2,8,3
3692,8,2,-2,6,2,2,9,2
3693,9,1,-3,7,1,1,11,2
3694,9,0,-4,8,0,-1,11,0
3695,8,-1,-5,9,-1,-2,11,-1
3696,8,-2,-7,8,-3,-3,11,-3
3697,7,-3,-8,7,-4,-3,10,-4
3698,6,-3,-8,5,-5,-3,9,-5
3699,7,-4,-8,4,-7,-3,9,-6
3700,7,-5,-8,4,-8,-2,9,-6
3701,7,-5,-6,4,-8,-1,9,-6
3702,7,-6,-5,5,-7,0,9,-6
3703,8,-6,-5,6,-6,-1,9,-5
3704,9,-6,-5,7,-4,-2,10,-4
3705,9,-6,-6,9,-3,-3,10,-3
3706,9,-5,-6,9,-2,-4,10,-1
3707,9,-4,-7,10,-2,-5,9,0
3708,9,-3,-7,10,-2,-6,9,1
3709,8,-2,-8,10,-4,-6,8,1
3710,8,-3,-9,10,-5,-5,7,1
3711,7,-5,-10,11,-7,-6,7,-1
3712,8,-6,-11,11,-8,-7,7,-1
3713,8,-7,-9,12,-8,-8,6,-1
3714,8,-7,-8,11,-7,-9,6,-1
3715,8,-7,-8,10,-6,-10,5,-1
3716,8,-6,-8,9,-5,-9,4,-1
3717,8,-5,-8,8,-4,-7,3,-1
3718,7,-5,-10,7,-3,-5,2,0
3719,7,-4,-11,7,-3,-4,1,0
3720,7,-4,-12,6,-3,-3,-1,1
3721,7,-4,-11,5,-3,-2,-2,2
3722,6,-4,-10,4,-3,0,-3,2
3723,5,-3,-9,2,-3,2,-5,2
3724,3,-2,-8,1,-3,4,-6,2
3725,3,-1,-7,1,-4,5,-6,2
3726,2,1,-6,1,-4,6,-5,2
3727,2,2,-5,2,-5,7,-4,2
3728,3,3,-4,4,-5,8,-2,2
3729,3,3,-1,5,-5,10,-1,2
3730,3,2,1,6,-5,11,0,1
3731,2,1,3,6,-6,13,0,0
3732,2,-1,4,5,-7,13,-1,-2
3733,1,-3,3,3,-8,13,-2,-3
3734,1,-5,1,1,-9,12,-3,-5
3735,1,-7,0,-1,-10,11,-5,-5
3736,1,-7,-1,-2,-10,10,-6,-5
3737,2,-8,-2,-3,-9,10,-6,-4
3738,2,-8,-3,-2,-9,12,-5,-3
3739,3,-8,-4,-2,-8,14,-4,-2
3740,3,-8,-5,-2,-8,15,-3,-2
3741,3,-8,-5,-2,-8,16,-3,-3
3742,3,-7,-3,-2,-8,16,-3,-3
3743,3,-7,0,-3,-8,15,-4,-3
3744,2,-7,2,-3,-9,14,-6,-3
3745,2,-6,4,-3,-9,14,-7,-3
3746,3,-6,4,-3,-9,12,-7,-3
3747,3,-7,3,-3,-10,12,-7,-3
3748,4,-7,1,-2,-10,11,-6,-3
3749,5,-8,-2,-1,-10,10,-5,-4
3750,5,-9,-4,0,-10,10,-4,-4
3751,6,-10,-5,1,-10,10,-4,-5
3752,5,-10,-4,1,-9,9,-4,-5
3753,5,-10,-3,1,-9,8,-4,-6
3754,4,-9,-1,0,-8,6,-4,-6
3755,3,-8,1,0,-8,5,-4,-7
3756,2,-8,2,-1,-7,4,-4,-7
3757,2,-8,2,-1,-6,3,-4,-8
3758,2,-8,1,-2,-5,3,-3,-8
3759,3,-9,1,-2,-4,2,-2,-9
3760,4,-9,-1,-2,-3,1,0,-8
3761,5,-9,-4,-1,-2,0,1,-8
3762,6,-8,-6,-1,-2,0,1,-6
3763,6,-7,-6,-1,-2,0,1,-5
3764,5,-6,-6,-1,-2,-1,1,-5
3765,4,-5,-5,-2,-2,-2,-1,-4
3766,4,-4,-3,-3,-2,-4,-2,-5
3767,3,-4,-1,-4,-2,-6,-3,-5
3768,2,-5,1,-5,-1,-7,-4,-5
3769,2,-5,0,-6,-1,-6,-5,-5
3770,2,-6,-1,-6,0,-5,-6,-5
3771,1,-7,-3,-6,1,-2,-7,-4
3772,1,-8,-5,-5,1,0,-7,-4
3773,1,-9,-6,-3,1,1,-7,-4
3774,1,-8,-4,-2,1,1,-6,-4
3775,1,-6,-2,-1,2,1,-5,-4
3776,1,-5,1,1,3,0,-4,-3
3777,2,-3,3,2,4,0,-3,-1
3778,2,0,4,3,5,0,-2,2
3779,2,3,5,3,7,1,-2,5
3780,2,5,5,5,9,0,-2,8
3781,2,6,4,7,10,-2,-1,9
3782,3,6,2,9,10,-3,0,10
3783,4,6,1,10,10,-4,2,9
3784,5,5,0,11,9,-3,3,8
3785,5,5,1,11,9,-1,4,6
3786,5,6,1,12,9,1,5,6
3787,5,8,3,12,9,2,6,7
3788,5,11,5,13,9,2,6,9
3789,5,13,6,13,10,3,6,12
3790,6,15,7,14,11,4,6,14
3791,6,16,7,14,11,5,7,16
3792,7,17,8,14,10,7,7,17
3793,8,16,8,14,9,8,8,16
3794,9,15,7,14,7,8,9,13
3795,9,14,6,13,5,6,10,11
3796,9,12,3,13,2,5,9,8
3797,8,11,2,12,1,5,8,7
3798,8,11,2,12,0,6,7,8
3799,7,12,3,11,0,7,6,9
3800,7,12,5,11,1,8,5,10
3801,6,13,6,10,1,9,5,10
3802,6,12,8,10,1,10,5,10
3803,5,10,9,9,0,10,5,7
3804,5,8,9,9,-2,10,5,4
3805,4,6,10,8,-4,10,5,1
3806,3,5,10,7,-5,11,4,-1
3807,2,4,9,6,-7,12,3,-3
3808,1,4,7,4,-8,15,2,-3
3809,1,5,6,2,-10,19,1,-3
3810,2,4,4,1,-11,23,-1,-2
3811,2,4,3,0,-13,25,-1,-1
3812,3,3,1,-1,-15,25,-1,0
3813,4,2,-1,-1,-17,24,-1,1
3814,4,2,-1,-1,-18,23,0,1
3815,5,2,1,-1,-17,22,0,2
3816,5,1,3,-2,-16,22,1,3
3817,5,1,5,-2,-14,22,1,4
3818,4,1,6,-3,-12,21,1,5
3819,3,1,6,-3,-11,20,1,6
3820,2,0,6,-3,-10,18,1,6
3821,2,-1,6,-3,-10,16,2,6
3822,1,-2,6,-3,-10,14,2,5
3823,1,-4,5,-2,-11,13,1,3
3824,1,-6,4,-2,-12,13,1,1
3825,0,-7,3,-1,-13,13,1,-2
3826,0,-8,3,-1,-14,13,1,-4
3827,0,-8,3,0,-14,14,1,-5
3828,0,-7,6,1,-14,16,0,-4
3829,1,-6,8,1,-14,17,0,-3
3830,3,-5,10,2,-13,19,0,-1
3831,3,-2,11,3,-13,21,-1,2
3832,4,0,11,5,-12,23,-1,4
3833,4,2,11,6,-11,24,-1,7
3834,4,4,12,7,-10,24,-1,8
3835,3,4,13,8,-9,24,-1,9
3836,3,4,16,7,-8,23,0,8
3837,2,4,19,7,-7,23,0,7
3838,1,4,20,5,-5,23,0,5
3839,1,3,20,4,-5,23,-1,4
3840,-1,3,17,3,-5,23,-2,3
3841,-2,3,15,2,-5,23,-3,3
3842,-2,4,13,1,-6,22,-4,4
3843,-2,4,13,2,-6,22,-5,5
3844,-2,3,13,2,-5,22,-5,6
3845,0,2,12,3,-5,22,-4,6
3846,1,1,11,4,-6,21,-3,5
3847,2,0,9,4,-6,21,-1,3
3848,3,-1,9,4,-7,20,0,1
3849,3,-1,10,4,-7,20,1,0
3850,4,-1,11,5,-7,20,1,-1
3851,4,-1,13,5,-7,20,1,-2
3852,4,-2,13,5,-8,21,1,-3
3853,5,-3,13,5,-9,21,0,-4
3854,5,-3,11,5,-11,21,-1,-3
3855,5,-3,9,5,-12,19,-1,-2
3856,6,-3,6,6,-12,17,-1,-2
3857,6,-3,2,6,-13,14,0,-1
3858,6,-2,-1,6,-13,11,2,0
3859,6,-2,-3,6,-13,9,3,0
3860,6,-2,-4,6,-13,8,4,-1
3861,7,-2,-5,6,-12,7,5,-1
3862,7,-1,-4,7,-12,6,6,1
3863,8,-1,-3,7,-11,5,6,3
3864,8,1,-1,7,-10,5,5,6
3865,9,1,1,7,-9,5,4,9
3866,9,2,2,6,-8,6,2,11
3867,8,2,2,6,-7,6,1,12
3868,8,0,1,5,-7,7,-1,12
3869,7,-1,1,5,-7,8,-2,11
3870,5,-1,3,5,-7,9,-3,10
3871,4,0,5,5,-6,9,-3,10
3872,2,1,6,5,-6,9,-3,9
3873,2,2,6,5,-5,9,-2,9
3874,3,3,6,6,-4,9,0,8
3875,3,2,6,6,-4,9,1,7
3876,4,1,6,5,-5,10,2,5
3877,4,-1,7,4,-6,10,1,4
3878,3,-2,6,2,-7,10,-1,2
3879,2,-3,6,1,-8,9,-2,1
3880,1,-3,5,1,-8,9,-2,0
3881,0,-2,4,1,-7,10,-2,0
3882,1,-2,4,1,-5,11,-1,0
3883,2,-2,4,2,-4,12,1,0
3884,3,-3,2,3,-5,11,2,-1
3885,4,-4,1,4,-5,9,3,-2
3886,5,-6,-1,4,-7,7,4,-4
3887,5,-7,-1,4,-8,5,4,-5
3888,6,-8,0,3,-9,4,4,-6
3889,6,-8,1,3,-10,5,4,-7
3890,6,-7,1,3,-11,6,4,-6
3891,6,-7,1,3,-11,7,3,-5
3892,6,-6,1,3,-10,8,3,-5
3893,5,-5,2,4,-9,7,2,-4
3894,4,-5,2,4,-8,6,2,-4
3895,3,-5,3,4,-7,5,1,-3
3896,1,-5,3,3,-7,5,0,-3
3897,1,-5,4,2,-6,5,-2,-3
3898,1,-4,5,1,-5,5,-2,-2
3899,1,-3,5,0,-4,5,-2,-1
3900,2,-3,4,0,-4,4,-2,0
3901,4,-2,3,0,-3,3,-1,1
3902,4,-2,3,1,-3,3,0,1
3903,5,-2,4,1,-3,3,0,1
3904,5,-2,7,2,-2,5,1,1
3905,4,-3,10,2,-2,8,1,1
3906,4,-4,11,2,-2,9,0,0
3907,4,-5,11,2,-2,9,0,-1
3908,3,-5,10,1,-3,9,-1,-2
3909,3,-6,9,-1,-5,8,-1,-3
3910,4,-6,8,-2,-7,8,-1,-4
3911,4,-6,7,-2,-8,7,-1,-6
3912,5,-6,6,-2,-9,7,0,-6
3913,5,-5,5,-1,-8,7,1,-5
3914,6,-4,4,1,-6,6,2,-2
3915,8,-3,3,3,-3,4,3,1
3916,9,-1,3,5,0,3,3,5
3917,10,0,3,6,3,2,3,8
3918,10,1,4,7,4,1,3,9
3919,9,0,5,7,4,0,3,9
3920,8,-1,6,7,3,-1,2,7
3921,6,-2,7,6,3,-1,2,5
3922,4,-3,7,5,3,1,2,3
3923,3,-4,8,5,3,3,2,3
3924,3,-3,9,6,2,4,1,3
3925,4,-2,10,7,2,5,1,5
3926,5,0,9,8,1,5,1,8
3927,7,2,8,9,1,3,1,10
3928,8,5,6,9,1,1,2,12
3929,10,7,5,9,1,1,2,13
3930,10,8,5,8,2,1,3,13
3931,10,8,6,7,3,3,3,13
3932,9,8,7,6,3,5,3,12
3933,7,7,9,5,3,6,3,11
3934,6,4,11,5,2,7,3,9
3935,4,2,13,5,1,8,3,7
3936,3,-1,15,5,0,7,3,5
3937,4,-3,14,6,0,6,4,3
3938,5,-4,12,7,-1,5,5,2
3939,7,-5,8,8,-1,4,7,0
3940,9,-6,5,7,-1,4,8,-1
3941,11,-5,4,5,0,4,8,-1
3942,12,-4,5,3,1,5,7,1
3943,10,-1,8,-1,2,6,5,2
3944,8,1,11,-3,3,7,3,3
3945,6,2,12,-5,2,7,1,3
3946,3,2,12,-5,0,6,-1,2
3947,1,1,10,-4,-2,4,-1,0
3948,-1,-1,8,-3,-4,2,-2,-2
3949,-2,-2,5,-3,-6,0,-2,-3
3950,-3,-3,4,-2,-6,-2,-3,-4
3951,-3,-4,4,-1,-7,-3,-4,-4
3952,-3,-5,4,1,-7,-2,-4,-5
3953,-2,-6,6,2,-7,0,-4,-5
3954,-1,-6,8,4,-6,1,-2,-4
3955,2,-5,10,5,-4,2,-1,-2
3956,5,-2,11,7,-1,4,2,2
3957,9,2,13,8,3,6,4,6
3958,12,6,16,9,7,8,5,9
3959,14,9,19,9,10,9,6,12
3960,15,11,20,8,12,10,6,13
3961,14,12,20,7,13,12,6,13
3962,12,12,19,6,15,14,5,12
3963,10,10,17,5,17,18,5,11
3964,8,9,16,4,17,20,4,9
3965,6,7,17,4,17,20,3,8
3966,5,4,17,4,16,17,2,6
3967,4,2,17,5,14,12,2,4
3968,3,-1,14,5,11,6,1,1
3969,2,-4,10,5,7,1,1,-2
3970,1,-7,5,5,3,-4,1,-6
3971,0,-11,1,5,-1,-8,1,-10
3972,-1,-15,-2,5,-5,-12,1,-13
3973,-1,-17,-3,5,-8,-16,2,-14
3974,-1,-18,-4,6,-10,-17,2,-13
3975,-1,-17,-5,7,-9,-16,2,-11
3976,0,-14,-5,6,-7,-13,2,-8
3977,0,-10,-4,6,-5,-9,1,-5
3978,-1,-6,-3,5,-2,-6,0,-3
3979,-2,-3,-1,3,0,-5,-2,-1
3980,-3,-1,2,1,2,-3,-4,0
3981,-4,1,6,-1,3,-1,-5,0
3982,-5,1,11,-3,4,2,-6,-1
3983,-5,1,15,-4,5,4,-6,-2
3984,-6,-1,16,-6,6,5,-6,-4
3985,-7,-3,14,-7,6,6,-6,-6
3986,-8,-4,11,-8,6,6,-6,-8
3987,-9,-5,8,-8,6,5,-6,-9
3988,-10,-7,6,-8,6,4,-6,-10
3989,-11,-7,8,-8,5,4,-6,-10
3990,-11,-8,10,-8,4,5,-5,-10
3991,-10,-8,10,-8,2,6,-5,-10
3992,-9,-9,10,-8,1,6,-4,-10
3993,-8,-9,9,-8,0,6,-4,-9
3994,-6,-8,9,-7,-1,5,-3,-8
3995,-5,-8,9,-5,-1,2,-3,-8
3996,-5,-8,9,-4,-2,-1,-2,-8
3997,-4,-8,7,-3,-2,-2,-3,-9
3998,-4,-8,4,-3,-2,-3,-4,-9
3999,-4,-7,2,-4,-1,-3,-4,-9
4000,-4,-6,2,-5,-1,-2,-5,-8
4001,-4,-5,3,-6,1,-1,-5,-7
4002,-5,-4,5,-7,2,0,-5,-6
4003,-5,-4,7,-8,2,1,-5,-6
4004,-4,-4,6,-9,2,2,-5,-6
4005,-4,-4,5,-10,2,1,-5,-6
4006,-4,-6,4,-10,2,1,-5,-7
4007,-4,-8,2,-11,2,0,-5,-7
4008,-4,-10,0,-11,2,-2,-5,-8
4009,-4,-11,-2,-11,2,-6,-5,-8
4010,-4,-11,-2,-10,1,-9,-5,-9
4011,-5,-11,-2,-10,2,-12,-5,-8
4012,-5,-10,-1,-9,2,-13,-5,-8
4013,-6,-10,1,-8,3,-11,-6,-7
4014,-7,-10,3,-7,4,-8,-7,-6
4015,-8,-10,3,-6,5,-5,-7,-5
4016,-8,-9,2,-5,5,-4,-7,-5
4017,-7,-8,1,-4,4,-5,-6,-4
4018,-6,-7,1,-3,2,-6,-5,-4
4019,-5,-7,0,-2,0,-7,-4,-4
4020,-4,-7,-1,-2,-3,-7,-4,-5
4021,-3,-7,-3,-2,-5,-7,-3,-6
4022,-3,-8,-4,-2,-8,-6,-3,-8
4023,-3,-8,-6,-2,-9,-5,-3,-8
4024,-3,-8,-7,-2,-9,-3,-4,-8
4025,-3,-8,-5,-2,-8,-1,-4,-8
4026,-3,-8,-3,-4,-8,2,-5,-7
4027,-4,-9,0,-5,-8,5,-7,-7
4028,-5,-9,2,-7,-9,7,-8,-7
4029,-6,-10,3,-9,-10,8,-9,-7
4030,-7,-11,3,-11,-10,9,-9,-8
4031,-8,-11,3,-12,-10,8,-9,-8
4032,-8,-11,2,-12,-10,7,-9,-9
4033,-8,-10,-1,-12,-10,5,-8,-10
4034,-8,-9,-2,-12,-9,4,-8,-10
4035,-8,-8,-2,-11,-8,3,-9,-8
4036,-7,-7,0,-11,-7,4,-9,-6
4037,-7,-6,4,-9,-6,5,-9,-4
4038,-5,-6,9,-7,-5,6,-8,-2
4039,-5,-6,12,-5,-5,6,-7,-2
4040,-4,-6,13,-3,-5,6,-6,-2
4041,-5,-6,13,-2,-5,5,-5,-3
4042,-5,-5,12,-1,-5,4,-4,-4
4043,-5,-4,11,0,-4,4,-3,-4
4044,-4,-2,11,1,-4,4,-2,-3
4045,-4,-1,11,2,-3,4,-2,-2
4046,-3,-1,10,2,-3,4,-2,-2
4047,-2,0,8,2,-2,5,-2,-1
4048,-2,0,6,2,-2,4,-3,0
4049,-2,0,3,1,-1,4,-4,1
4050,-2,1,2,1,-1,3,-4,2
4051,-2,2,1,0,-1,3,-5,2
4052,-2,2,0,-1,-1,2,-4,3
4053,-1,3,1,-1,-1,3,-4,3
4054,0,3,1,-1,-2,4,-3,3
4055,0,3,2,-1,-2,5,-3,2
4056,0,2,2,-1,-2,4,-2,2
4057,-1,1,3,-1,-2,3,-2,1
4058,-1,0,4,-1,-2,1,-2,0
4059,-1,-1,5,-1,-1,0,-2,-1
4060,-2,-1,6,0,-1,0,-1,-1
4061,-2,-2,7,1,-1,-1,-1,-2
4062,-3,-2,7,1,-2,0,0,-2
4063,-3,-3,5,0,-2,-1,0,-2
4064,-2,-3,2,0,-1,-1,0,-1
4065,-1,-4,0,0,-1,-2,0,-1
4066,0,-4,-1,0,0,-3,1,0
4067,2,-4,0,1,1,-3,1,0
4068,2,-3,1,1,2,-2,2,1
4069,3,-3,1,2,3,-2,3,2
4070,4,-3,-3,2,4,-3,3,2
4071,4,-2,-7,2,5,-4,3,3
4072,5,-1,-10,2,5,-6,3,4
4073,5,1,-12,3,4,-8,3,4
4074,5,1,-11,4,3,-9,3,5
4075,5,2,-7,5,3,-9,3,6
4076,4,3,-3,5,2,-8,2,7
4077,3,3,0,6,2,-7,1,8
4078,3,3,1,6,3,-7,0,9
4079,4,3,1,6,4,-6,0,10
4080,6,3,1,6,4,-6,0,11
4081,7,4,1,5,5,-6,0,12
4082,8,5,1,5,6,-6,0,13
4083,8,6,1,4,6,-7,0,14
4084,8,7,2,3,6,-9,-1,14
4085,7,7,2,2,5,-11,-1,13
4086,7,6,1,1,5,-13,-1,12
4087,6,5,1,0,4,-13,-1,11
4088,6,5,1,-1,4,-13,-1,11
4089,7,6,1,-1,5,-13,0,11
4090,8,6,3,0,6,-12,0,12
4091,10,7,4,0,7,-12,1,13
4092,11,8,3,-1,9,-12,0,13
4093,10,8,2,-2,10,-12,0,13
4094,9,7,-1,-2,10,-12,0,12
4095,8,6,-4,-3,10,-12,0,10
4096,7,4,-5,-3,9,-12,0,7
4097,5,3,-4,-3,7,-12,0,4
4098,4,1,-2,-3,6,-11,0,2
4099,3,-1,0,-3,5,-10,-1,-1
4100,4,-2,0,-3,5,-9,-1,-3
4101,4,-3,-2,-3,5,-7,-1,-4
4102,5,-3,-3,-3,4,-6,-1,-5
4103,6,-3,-4,-3,3,-5,0,-7
4104,6,-3,-3,-3,1,-6,1,-8
4105,6,-2,0,-4,-1,-6,1,-8
4106,5,-3,2,-4,-2,-6,1,-8
4107,5,-3,1,-4,-3,-7,1,-7
4108,5,-4,-3,-4,-3,-9,2,-6
4109,6,-4,-8,-3,-3,-12,2,-4
4110,7,-4,-12,-2,-2,-16,3,-2
4111,8,-4,-14,-1,-1,-18,5,-1
4112,10,-3,-14,0,1,-18,6,1
4113,10,-3,-12,0,2,-17,6,3
4114,10,-2,-10,-1,3,-16,5,3
4115,9,-2,-9,-2,3,-13,4,3
4116,8,-3,-9,-3,2,-11,3,3
4117,6,-3,-8,-4,1,-10,1,2
4118,4,-3,-6,-5,1,-9,1,1
4119,4,-2,-5,-5,1,-9,0,1
4120,4,0,-3,-4,2,-9,1,1
4121,4,1,-2,-4,3,-9,1,2
4122,5,2,1,-3,3,-8,1,2
4123,7,1,2,-2,3,-8,2,2
4124,8,1,3,-1,2,-8,2,0
4125,9,-1,2,1,1,-8,3,-1
4126,9,-2,0,2,-1,-9,3,-3
4127,9,-2,-4,3,-3,-9,3,-5
4128,8,-2,-7,4,-4,-10,4,-6
4129,8,-2,-8,5,-4,-10,4,-6
4130,8,-2,-9,5,-4,-10,5,-6
4131,8,-2,-9,6,-4,-10,5,-6
4132,7,-3,-8,5,-4,-11,6,-8
4133,7,-4,-7,5,-5,-12,6,-10
4134,6,-4,-6,4,-5,-12,7,-11
4135,6,-5,-6,3,-4,-12,7,-12
4136,6,-5,-5,2,-3,-12,6,-12
4137,7,-5,-5,2,-2,-12,5,-11
4138,7,-5,-5,2,-2,-12,5,-10
4139,7,-4,-5,2,-3,-12,4,-9
4140,7,-4,-5,2,-4,-12,4,-9
4141,7,-4,-5,3,-5,-12,5,-10
4142,8,-5,-4,4,-7,-11,5,-11
4143,8,-6,-3,5,-8,-9,5,-12
4144,8,-7,-2,6,-8,-8,5,-12
4145,7,-7,-2,6,-8,-7,4,-11
4146,7,-8,-1,5,-8,-6,2,-9
4147,6,-10,-1,4,-8,-7,0,-8
4148,6,-11,1,3,-8,-7,-1,-7
4149,7,-12,1,2,-8,-7,-2,-7
4150,7,-12,1,1,-7,-8,-1,-7
4151,8,-11,-1,2,-7,-8,1,-6
4152,9,-10,-4,2,-6,-8,2,-5
4153,8,-8,-6,2,-5,-8,3,-3
4154,8,-5,-5,2,-3,-7,3,-1
4155,7,-4,-4,2,-2,-6,1,2
4156,6,-3,-2,2,-1,-5,0,4
4157,6,-3,-4,2,0,-5,-1,5
4158,6,-4,-8,2,0,-6,-1,4
4159,7,-5,-11,1,0,-7,-1,3
4160,8,-5,-11,1,1,-6,1,2
4161,8,-5,-9,1,2,-5,2,1
4162,9,-4,-7,1,4,-3,3,1
4163,9,-4,-7,1,5,-3,4,-1
4164,9,-3,-8,1,6,-4,5,-1
4165,10,-3,-11,2,6,-8,5,-1
4166,10,-2,-13,3,6,-11,5,-1
4167,10,-1,-13,4,6,-13,5,1
4168,10,-1,-11,4,6,-15,4,2
4169,10,0,-10,5,6,-16,3,3
4170,9,-1,-8,5,5,-16,2,3
4171,8,-2,-6,5,4,-16,2,2
4172,8,-3,-2,6,4,-16,2,1
4173,8,-3,2,7,4,-16,3,0
4174,7,-3,3,7,3,-15,4,-1
4175,7,-3,-1,7,3,-16,5,-3
4176,6,-3,-9,6,2,-15,5,-4
4177,6,-3,-17,5,1,-15,3,-4
4178,5,-2,-24,3,1,-13,0,-3
4179,4,-1,-26,2,1,-11,-2,-1
4180,5,0,-23,1,2,-9,-3,2
4181,6,0,-19,1,2,-8,-3,3
4182,7,-1,-15,1,3,-9,-3,3
4183,8,-3,-13,1,3,-11,-1,2
4184,9,-5,-11,1,2,-13,0,0
4185,9,-6,-9,1,2,-14,2,-1
4186,9,-7,-8,1,3,-14,3,-2
4187,9,-5,-9,2,4,-14,4,-1
4188,9,-2,-12,3,7,-16,4,1
4189,9,1,-18,3,14,-20,3,3
4190,9,3,-22,2,24,-27,3,5
4191,10,4,-24,1,35,-37,2,6
4192,10,4,-23,2,45,-47,3,6
4193,11,5,-18,4,52,-53,5,6
4194,12,4,-13,7,54,-56,8,5
4195,13,5,-10,11,54,-56,11,5
4196,14,5,-8,13,54,-54,15,4
4197,14,4,-7,14,54,-53,17,4
4198,14,4,-7,15,54,-53,18,4
4199,14,3,-7,14,53,-53,19,3
4200,13,2,-9,14,51,-56,18,4
4201,13,2,-13,14,48,-59,16,4
4202,13,1,-19,14,46,-62,15,5
4203,13,1,-27,14,44,-63,14,6
4204,12,0,-33,14,43,-61,12,6
4205,12,0,-36,14,43,-57,11,7
4206,12,1,-36,14,43,-53,10,7
4207,11,1,-33,13,43,-50,9,7
4208,11,2,-29,12,43,-49,9,8
4209,11,2,-26,12,43,-48,10,8
4210,10,3,-24,12,43,-47,10,9
4211,9,3,-23,11,43,-45,11,9
4212,8,4,-22,11,43,-43,10,9
4213,6,5,-21,10,43,-41,9,9
4214,4,6,-21,9,42,-41,7,10
4215,1,5,-21,8,41,-42,4,9
4216,-1,3,-20,6,39,-41,1,7
4217,-2,1,-19,4,36,-39,-1,4
4218,-4,-3,-19,2,33,-37,-2,0
4219,-4,-6,-19,1,30,-37,-1,-5
4220,-5,-9,-18,1,27,-37,-1,-8
4221,-6,-11,-18,0,25,-38,-1,-10
4222,-6,-12,-19,0,24,-39,0,-10
4223,-6,-13,-20,-1,23,-39,0,-10
4224,-6,-14,-22,-1,23,-39,-1,-9
4225,-6,-14,-25,-2,23,-39,-1,-9
4226,-6,-13,-28,-3,23,-39,-2,-9
4227,-6,-13,-31,-3,23,-39,-3,-9
4228,-6,-13,-32,-3,22,-39,-5,-9
4229,-8,-11,-31,-3,22,-39,-7,-8
4230,-9,-10,-29,-4,22,-38,-8,-7
4231,-11,-8,-28,-5,21,-38,-9,-5
4232,-12,-7,-29,-5,21,-37,-9,-4
4233,-11,-6,-32,-4,20,-36,-8,-3
4234,-11,-6,-34,-3,19,-34,-7,-2
4235,-9,-5,-33,-3,19,-32,-6,-1
4236,-8,-3,-28,-2,18,-29,-5,0
4237,-8,-2,-23,-2,16,-27,-4,0
4238,-7,-2,-17,-2,15,-25,-4,-1
4239,-6,-2,-14,-2,13,-25,-4,-2
4240,-6,-3,-13,-2,12,-24,-5,-3
4241,-5,-5,-12,-3,12,-23,-6,-6
4242,-6,-8,-12,-4,11,-21,-6,-9
4243,-6,-10,-10,-5,10,-20,-7,-12
4244,-7,-13,-8,-6,8,-19,-8,-15
4245,-8,-16,-8,-7,6,-20,-9,-18
4246,-9,-18,-10,-8,3,-21,-10,-19
4247,-9,-19,-13,-8,2,-22,-12,-19
4248,-9,-19,-17,-7,1,-23,-13,-17
4249,-8,-18,-20,-6,1,-23,-13,-13
4250,-7,-16,-20,-5,2,-23,-12,-10
4251,-6,-14,-18,-5,2,-23,-10,-8
4252,-6,-12,-16,-5,2,-22,-9,-8
4253,-6,-11,-13,-5,2,-21,-8,-8
4254,-6,-11,-12,-6,2,-21,-7,-9
4255,-6,-11,-12,-7,2,-21,-6,-11
4256,-6,-11,-13,-7,2,-22,-5,-11
4257,-7,-11,-14,-8,3,-23,-5,-11
4258,-8,-10,-13,-9,3,-24,-6,-11
4259,-9,-9,-11,-9,4,-23,-9,-9
4260,-11,-9,-10,-10,5,-21,-11,-8
4261,-12,-9,-9,-11,6,-19,-13,-7
4262,-13,-9,-8,-12,6,-17,-14,-7
4263,-14,-10,-7,-13,7,-15,-14,-8
4264,-14,-10,-5,-13,9,-13,-13,-8
4265,-13,-10,-3,-13,11,-12,-11,-8
4266,-12,-10,-1,-12,12,-10,-10,-8
4267,-12,-8,1,-12,13,-8,-9,-8
4268,-11,-7,2,-12,13,-6,-9,-7
4269,-11,-5,3,-12,12,-3,-9,-6
4270,-10,-4,3,-11,10,0,-9,-4
4271,-10,-3,5,-10,8,2,-9,-4
4272,-10,-3,7,-9,6,3,-9,-4
4273,-11,-3,9,-9,4,4,-10,-6
4274,-11,-4,10,-9,1,3,-10,-8
4275,-11,-5,10,-10,-1,2,-11,-10
4276,-11,-5,9,-11,-3,1,-12,-10
4277,-12,-4,10,-12,-4,0,-14,-10
4278,-12,-3,9,-13,-4,1,-16,-8
4279,-12,-2,8,-13,-4,3,-16,-7
4280,-11,-1,8,-12,-3,6,-15,-6
4281,-10,-1,8,-10,-3,8,-13,-5
4282,-8,0,9,-8,-1,10,-10,-3
4283,-6,1,10,-6,1,9,-7,-2
4284,-4,2,10,-5,3,7,-4,1
4285,-1,3,10,-4,4,6,-2,3
4286,0,4,8,-3,5,6,-1,4
4287,1,5,7,-3,6,5,-1,5
4288,1,5,5,-3,6,5,-1,6
4289,0,4,6,-3,6,4,-2,6
4290,-1,3,7,-4,6,4,-4,5
4291,-2,3,8,-5,6,5,-5,5
4292,-3,2,8,-7,6,5,-6,4
4293,-5,1,7,-9,6,5,-8,3
4294,-6,1,6,-10,5,5,-9,3
4295,-7,0,5,-11,4,5,-10,2
4296,-6,0,6,-12,3,5,-10,2
4297,-6,1,7,-12,3,5,-10,2
4298,-4,2,8,-10,4,6,-8,3
4299,-3,4,8,-8,5,7,-6,5
4300,-2,5,7,-6,7,8,-4,8
4301,-1,6,5,-5,8,7,-3,10
4302,-1,6,3,-4,9,5,-2,11
4303,-2,6,1,-3,8,3,-2,11
4304,-2,5,1,-3,8,2,-3,10
4305,-2,5,3,-3,7,1,-3,9
4306,-1,4,4,-3,7,0,-3,8
4307,-1,4,5,-3,7,-1,-3,8
4308,0,5,4,-4,7,-1,-4,8
4309,0,5,3,-4,7,-2,-5,9
4310,-1,6,2,-5,7,-2,-6,9
4311,-1,6,2,-5,7,-2,-7,10
4312,-2,6,2,-5,7,-2,-7,9
4313,-2,6,3,-5,6,-1,-5,9
4314,-1,6,3,-4,6,1,-3,8
4315,0,8,5,-3,6,2,-1,8
4316,1,10,6,-2,7,2,0,9
4317,1,11,8,-1,8,2,1,10
4318,2,12,9,-1,9,1,1,10
4319,2,12,8,-1,9,-1,0,9
4320,2,10,6,0,8,-3,0,7
4321,2,8,5,1,6,-4,0,5
4322,2,6,6,2,5,-4,0,3
4323,1,4,7,3,5,-4,1,2
4324,0,3,6,2,5,-4,2,1
4325,-1,2,4,1,5,-4,2,-1
4326,-2,1,2,-1,4,-5,2,-3
4327,-3,0,1,-2,4,-5,2,-4
4328,-3,-1,3,-3,3,-4,2,-5
4329,-3,-1,7,-4,2,-3,2,-5
4330,-3,-2,11,-3,2,-3,1,-5
4331,-2,-3,12,-3,1,-3,1,-5
4332,-2,-4,9,-3,1,-5,1,-5
4333,-2,-6,5,-3,0,-7,1,-5
4334,-3,-7,1,-3,-1,-9,1,-5
4335,-3,-7,-2,-4,-1,-10,0,-5
4336,-4,-6,-3,-5,0,-10,0,-4
4337,-4,-5,-3,-6,2,-10,-1,-3
4338,-4,-3,-2,-7,4,-10,-1,-1
4339,-3,0,0,-7,7,-9,-1,3
4340,-3,3,2,-6,8,-8,0,6
4341,-2,5,2,-4,9,-7,0,8
4342,-2,6,1,-3,10,-7,0,9
4343,-2,7,-2,-1,9,-8,0,10
4344,-2,6,-5,0,9,-8,0,9
4345,-2,5,-6,0,8,-9,0,8
4346,-1,4,-6,0,8,-9,1,7
4347,-1,4,-2,0,9,-9,1,7
4348,0,5,3,1,10,-9,2,7
4349,0,6,8,1,11,-8,2,8
4350,1,7,10,2,11,-8,3,9
4351,1,8,9,2,11,-8,3,8
4352,2,7,7,3,11,-9,3,8
4353,3,5,3,3,10,-11,4,6
4354,4,4,1,4,8,-13,5,4
4355,4,2,0,4,6,-14,5,3
4356,4,2,0,5,4,-14,5,2
4357,4,1,-1,6,3,-14,5,2
4358,5,1,-3,6,2,-12,6,2
4359,5,1,-4,6,2,-11,6,3
4360,5,1,-6,6,3,-10,7,3
4361,6,0,-7,6,3,-9,7,3
4362,6,-2,-8,7,4,-8,7,3
4363,6,-3,-7,7,3,-8,7,2
4364,5,-3,-5,6,3,-7,6,1
4365,3,-3,-2,6,3,-6,5,1
4366,2,-2,1,5,4,-5,4,1
4367,1,-1,3,4,5,-3,3,1
4368,-1,0,4,3,5,-2,3,1
4369,-1,2,4,2,6,-2,3,3
4370,-1,3,3,2,7,-2,3,4
4371,-1,4,4,2,7,-3,3,5
4372,1,4,6,2,7,-3,4,5
4373,2,4,9,2,6,-3,5,5
4374,2,3,10,2,5,-3,5,3
4375,3,2,9,2,4,-4,6,2
4376,3,1,6,2,3,-5,6,1
4377,2,-1,1,2,2,-6,6,0
4378,2,-1,-5,2,2,-8,6,0
4379,1,0,-10,2,1,-10,5,1
4380,1,1,-11,2,1,-11,5,1
4381,1,3,-9,1,1,-12,4,2
4382,1,3,-4,1,1,-11,4,2
4383,1,3,1,0,0,-9,3,1
4384,2,2,4,0,0,-8,4,-1
4385,2,1,5,0,-1,-8,4,-3
4386,1,1,4,1,-1,-7,4,-4
4387,1,2,4,2,0,-7,3,-3
4388,0,3,4,2,1,-6,3,-1
4389,0,4,5,3,3,-4,1,1
4390,-1,5,6,3,4,-2,1,3
4391,-1,5,7,4,5,1,1,3
4392,0,4,9,4,5,2,1,3
4393,1,3,10,6,5,2,2,1
4394,2,0,10,7,4,1,3,-1
4395,3,-2,9,8,3,0,4,-3
4396,3,-3,6,8,2,-2,5,-4
4397,3,-4,2,8,1,-2,5,-5
4398,3,-4,-2,8,1,-2,6,-5
4399,3,-4,-4,8,1,-2,5,-5
4400,3,-4,-3,7,2,-1,5,-4
4401,2,-3,-1,7,3,0,4,-3
4402,2,-3,3,6,3,1,3,-2
4403,2,-3,6,6,3,1,2,-3
4404,1,-4,7,5,1,2,2,-4
4405,1,-5,6,4,-1,3,2,-7
4406,0,-6,4,4,-3,3,2,-10
4407,0,-7,3,3,-4,3,2,-12
4408,1,-8,4,3,-4,3,2,-12
4409,1,-8,6,2,-3,3,2,-11
4410,1,-7,7,1,-2,3,2,-9
4411,1,-6,6,1,-1,1,1,-7
4412,1,-5,4,0,-1,-1,1,-5
4413,1,-5,3,-1,-1,-3,1,-4
4414,1,-4,2,-2,0,-3,0,-2
4415,1,-3,2,-2,2,-3,0,-1
4416,1,-2,2,-2,3,-2,1,0
4417,2,-2,1,-2,4,-2,2,1
4418,4,-2,0,-1,5,-2,3,1
4419,5,-2,-1,1,5,-3,3,2
4420,6,-2,0,1,6,-2,3,3
4421,6,-2,3,2,6,-2,3,5
4422,6,0,6,1,6,0,1,7
4423,5,1,8,1,6,1,0,8
4424,5,1,8,1,5,1,0,8
4425,4,0,8,2,3,1,1,6
4426,4,-1,7,4,2,1,2,4
4427,4,-3,5,5,2,2,4,2
4428,4,-4,4,6,2,2,5,1
4429,4,-4,3,7,3,2,6,1
4430,5,-3,2,7,3,1,7,2
4431,5,-2,1,7,4,0,7,2
4432,5,-2,1,5,4,-1,6,2
4433,6,-1,2,4,4,-1,6,3
4434,6,0,3,3,5,0,5,3
4435,7,0,3,2,6,0,4,4
4436,7,0,-1,2,6,0,3,4
4437,7,0,-4,2,6,0,3,4
4438,6,0,-7,3,6,0,3,4
4439,5,-1,-7,4,5,0,2,5
4440,3,-1,-5,4,5,1,2,6
4441,2,-1,-3,4,5,1,1,5
4442,1,-2,0,3,5,1,0,4
4443,1,-3,1,2,4,1,0,3
4444,1,-4,-1,0,3,1,-1,1
4445,1,-4,-2,-2,2,1,-2,-1
4446,1,-4,-1,-3,2,2,-2,-3
4447,1,-3,1,-4,1,3,-2,-4
4448,1,-3,3,-4,2,4,-2,-5
4449,1,-2,5,-4,2,5,-1,-5
4450,2,-2,6,-4,3,5,-1,-4
4451,3,-2,6,-4,4,5,-1,-2
4452,3,-1,6,-5,5,3,-1,0
4453,3,-1,6,-5,6,1,-2,2
4454,2,0,6,-5,6,0,-2,3
4455,2,1,6,-4,6,1,-2,3
4456,1,1,6,-4,5,2,-1,3
4457,1,2,6,-3,5,3,-1,3
4458,0,3,6,-3,5,4,-1,3
4459,-1,4,6,-3,4,3,-1,3
4460,0,3,5,-2,3,2,0,2
4461,1,3,3,-2,2,1,1,0
4462,2,2,2,-1,1,2,3,-1
4463,3,1,2,-1,1,3,3,-2
4464,4,1,2,-1,1,5,3,-3
4465,3,0,3,-2,2,6,2,-3
4466,2,-1,4,-3,3,7,1,-3
4467,0,-1,6,-3,3,7,-1,-2
4468,-2,0,7,-4,3,8,-3,-2
4469,-3,1,7,-5,2,8,-4,-1
4470,-4,2,6,-5,2,9,-4,-1
4471,-3,3,7,-5,1,9,-2,-1
4472,-2,3,7,-5,1,10,0,-2
4473,-1,3,7,-4,-1,12,2,-3
4474,0,1,6,-4,-3,13,3,-4
4475,1,0,7,-5,-4,15,3,-4
4476,1,-2,8,-5,-6,17,1,-4
4477,1,-3,10,-6,-7,18,-1,-3
4478,0,-3,11,-7,-7,19,-3,-1
4479,0,-3,12,-8,-7,20,-5,0
4480,-1,-3,13,-8,-8,21,-6,1
4481,-2,-3,14,-8,-9,21,-7,-1
4482,-3,-4,14,-7,-11,21,-7,-3
4483,-4,-5,15,-7,-13,19,-7,-6
4484,-4,-6,14,-6,-15,17,-6,-9
4485,-5,-7,12,-5,-17,15,-6,-11
4486,-5,-8,8,-4,-17,14,-5,-11
4487,-4,-7,4,-3,-16,14,-5,-10
4488,-3,-6,3,-2,-14,15,-6,-7
4489,-2,-4,4,-1,-12,16,-5,-4
4490,0,-2,6,0,-10,17,-4,-2
4491,2,0,7,2,-9,18,-3,0
4492,4,2,8,3,-8,18,-1,1
4493,4,3,8,5,-8,17,0,1
4494,4,3,8,5,-7,16,1,1
4495,4,2,8,4,-7,14,2,-1
4496,3,1,9,3,-7,13,1,-2
4497,1,1,10,1,-7,12,1,-3
4498,0,1,12,0,-6,12,-1,-3
4499,-1,2,12,-1,-6,14,-2,-3
4500,-2,3,11,-2,-5,15,-2,-2
4501,-1,3,9,-2,-4,15,-2,0
4502,-1,3,6,-2,-4,13,-2,0
4503,-1,2,3,-1,-4,10,-2,0
4504,-2,0,2,-1,-6,8,-2,-2
4505,-3,-2,4,0,-7,6,-2,-3
4506,-4,-4,7,0,-8,6,-2,-4
4507,-5,-5,9,0,-9,7,-3,-5
4508,-5,-6,10,-1,-10,9,-4,-5
4509,-5,-6,10,-2,-12,11,-4,-5
4510,-5,-6,10,-2,-14,13,-5,-5
4511,-4,-6,8,-1,-16,15,-4,-4
4512,-3,-6,6,-1,-18,16,-4,-3
4513,-2,-5,3,1,-18,17,-3,-2
4514,-1,-3,2,1,-18,17,-3,0
4515,0,0,1,2,-17,17,-2,1
4516,1,2,1,2,-16,18,0,2
4517,1,4,2,2,-16,19,1,1
4518,1,5,3,2,-16,20,2,-2
4519,1,6,3,1,-16,20,2,-4
4520,0,5,3,0,-15,19,1,-5
4521,-1,5,4,0,-14,18,0,-5
4522,-1,5,4,0,-12,16,-2,-3
4523,-2,5,5,0,-10,15,-2,-2
4524,-2,4,6,0,-9,13,-3,0
4525,-1,4,5,1,-9,13,-3,0
4526,0,3,4,1,-9,13,-2,0
4527,1,3,4,2,-9,13,-2,0
4528,1,2,6,2,-10,14,-2,-1
4529,1,1,8,1,-10,15,-1,-2
4530,0,0,10,-1,-11,16,-1,-5
4531,-1,-2,11,-2,-11,16,-1,-7
4532,-2,-3,12,-3,-10,17,-1,-8
4533,-2,-3,12,-3,-9,18,-1,-8
4534,-2,-2,11,-3,-7,18,-2,-6
4535,-2,0,10,-2,-5,17,-2,-3
4536,-1,2,8,-1,-4,15,-2,-1
4537,0,3,5,1,-3,13,-2,1
4538,1,4,2,3,-5,11,-1,2
4539,2,4,-1,4,-6,11,1,2
4540,3,5,-3,6,-7,10,2,2
4541,3,5,-5,6,-7,10,3,1
4542,2,5,-6,6,-7,8,3,1
4543,1,3,-7,5,-7,6,2,0
4544,-1,0,-7,3,-8,4,1,-2
4545,-2,-2,-7,1,-8,2,0,-4
4546,-2,-4,-7,-1,-7,0,0,-6
4547,-2,-6,-6,-1,-7,-1,1,-8
4548,-1,-5,-5,-1,-6,-1,1,-8
4549,0,-4,-2,-1,-4,-1,2,-6
4550,0,-2,1,0,-3,0,1,-4
4551,-1,-1,4,1,-3,1,0,-2
4552,-3,1,7,1,-2,2,-1,1
4553,-4,2,10,1,-2,3,-3,2
4554,-4,2,11,1,-2,5,-4,3
4555,-4,1,11,0,-2,6,-5,3
4556,-4,0,9,-1,-2,7,-5,2
4557,-3,-1,5,-1,-3,7,-5,1
4558,-2,-3,1,-2,-3,6,-4,-1
4559,-1,-3,-3,-2,-3,4,-3,-1
4560,-1,-3,-5,-2,-3,3,-3,-1
4561,-1,-1,-6,-3,-2,2,-3,0
4562,-1,1,-5,-4,-1,2,-4,2
4563,-2,2,-3,-5,0,3,-5,3
4564,-3,3,-2,-6,1,5,-7,5
4565,-4,3,-1,-7,1,6,-8,6
4566,-4,1,0,-8,0,8,-9,5
4567,-4,-1,1,-8,-1,9,-8,4
4568,-3,-2,2,-7,-3,9,-6,1
4569,-2,-4,3,-7,-4,9,-3,-2
4570,-1,-4,4,-6,-5,9,-1,-5
4571,0,-4,5,-6,-5,8,0,-8
4572,0,-4,5,-5,-6,8,0,-8
4573,0,-3,5,-5,-6,8,-1,-8
4574,0,-2,3,-4,-5,8,-2,-6
