Time,F3 - C3,C3 - P3,P3 - O1,F4 - C4,C4 - P4,P4 - O2,FZ - CZ,CZ - PZ
1,-7,2,3,4,1,3,0,9
2,-6,-1,1,3,0,1,2,8
3,-5,-4,0,3,-1,-1,4,5
4,-5,-8,0,2,-2,-2,5,3
5,-5,-10,2,1,-3,-1,5,2
6,-6,-10,5,-1,-5,2,4,3
7,-7,-10,7,-1,-6,5,3,5
8,-7,-8,9,-1,-7,8,3,7
9,-8,-6,11,0,-7,11,2,9
10,-8,-3,14,1,-7,14,1,11
11,-9,0,17,2,-7,16,-1,12
12,-10,2,18,2,-5,15,-2,15
13,-11,5,19,3,-3,11,-4,17
14,-12,6,20,2,-2,9,-6,18
15,-13,5,21,1,0,7,-8,16
16,-14,2,22,0,1,5,-10,13
17,-15,0,23,-1,2,4,-11,10
18,-15,-1,22,-2,2,3,-11,8
19,-14,1,19,-2,2,2,-11,9
20,-13,2,16,-1,3,-1,-10,10
21,-11,3,14,0,3,-2,-8,11
22,-8,4,13,0,2,-1,-7,11
23,-6,4,12,0,0,1,-6,11
24,-5,4,12,0,-1,2,-6,11
25,-4,4,10,0,-1,2,-6,11
26,-4,4,8,0,-1,1,-5,11
27,-4,5,5,1,1,-2,-5,11
28,-4,7,3,2,2,-4,-5,13
29,-4,9,0,3,4,-5,-5,14
30,-4,10,-1,3,4,-6,-4,15
31,-5,10,1,3,4,-4,-4,15
32,-6,10,5,2,2,0,-4,14
33,-7,9,8,1,0,4,-5,13
34,-8,8,9,0,-1,7,-6,13
35,-8,7,9,-1,-2,8,-7,13
36,-9,6,9,-2,-2,7,-8,13
37,-10,3,10,-2,-2,7,-9,13
38,-9,1,11,-2,-3,8,-9,12
39,-8,-2,12,-2,-3,8,-9,12
40,-6,-1,11,-1,-3,6,-8,13
41,-4,1,7,-1,-2,4,-6,14
42,-2,3,2,-1,-2,2,-4,16
43,1,5,-2,-1,-3,1,-2,16
44,2,6,-5,-1,-3,-1,0,17
45,2,7,-6,0,-4,-1,1,17
46,3,7,-7,0,-4,0,2,18
47,3,7,-7,1,-4,-1,2,20
48,3,6,-5,1,-4,-1,2,20
49,2,4,-1,1,-3,1,1,21
50,1,3,4,0,-3,3,-1,21
51,-1,4,7,-1,-2,5,-4,22
52,-3,4,9,-2,0,6,-6,24
53,-4,4,9,-3,2,6,-8,25
54,-4,3,9,-3,3,7,-10,25
55,-4,2,9,-4,2,8,-10,23
56,-4,0,9,-3,1,9,-11,22
57,-3,1,9,-3,-1,9,-11,21
58,-2,3,8,-3,-2,8,-10,21
59,0,5,4,-2,-3,8,-8,22
60,2,7,0,-1,-4,8,-6,23
61,4,6,-3,0,-5,8,-4,23
62,6,5,-4,1,-5,7,-2,22
63,7,2,-4,2,-4,6,-1,20
64,8,0,-4,3,-3,3,1,19
65,8,0,-4,3,-1,0,2,19
66,7,2,-4,3,2,-3,2,20
67,6,3,-4,3,4,-5,2,22
68,5,5,-2,2,5,-5,1,23
69,4,5,3,1,5,-4,0,23
70,2,4,9,1,4,-1,-2,22
71,0,2,17,0,3,3,-4,20
72,-2,0,21,-1,2,6,-6,19
73,-3,0,23,-1,2,7,-7,19
74,-4,1,22,-1,3,7,-8,20
75,-5,2,20,-1,3,6,-9,20
76,-6,3,17,0,4,5,-9,20
77,-7,3,16,0,4,5,-8,19
78,-7,2,16,0,3,5,-8,18
79,-6,2,17,1,1,5,-7,18
80,-4,1,17,1,0,4,-6,18
81,-2,1,16,2,-1,3,-5,18
82,-1,0,14,3,-2,1,-3,18
83,1,1,11,4,-2,-1,-1,18
84,1,1,7,4,-2,-2,1,18
85,1,3,3,5,-2,-3,2,16
86,-1,5,-1,5,-2,-3,2,15
87,-3,7,-4,4,-2,-3,2,14
88,-5,8,-5,4,-2,-2,1,14
89,-5,8,-3,3,-1,-2,0,14
90,-5,9,0,2,0,-1,-1,16
91,-4,9,4,2,1,-1,-2,19
92,-3,7,8,1,2,2,-3,20
93,-2,3,12,-1,2,5,-4,19
94,-2,-2,16,-2,2,8,-4,17
95,-2,-7,18,-3,0,11,-5,15
96,-2,-11,18,-4,-3,14,-4,13
97,-2,-12,16,-4,-5,16,-3,12
98,-1,-11,11,-4,-7,16,-1,12
99,1,-9,6,-3,-7,15,2,14
100,3,-7,3,-2,-6,14,4,16
101,4,-7,3,-1,-5,13,6,17
102,4,-8,6,1,-1,10,7,18
103,4,-7,9,2,3,7,7,19
104,4,-4,9,3,6,3,7,21
105,4,0,8,4,9,-2,6,23
106,4,4,5,5,11,-5,6,24
107,3,6,3,5,11,-7,5,25
108,2,8,2,4,11,-7,4,24
109,1,8,4,3,9,-4,2,21
110,-1,8,7,1,9,-1,0,18
111,-1,9,10,-2,9,3,-2,17
112,-2,10,11,-3,10,6,-4,17
113,-2,12,11,-4,11,8,-5,18
114,-1,14,9,-5,13,9,-5,19
115,0,14,8,-6,14,9,-5,19
116,1,13,8,-6,15,8,-5,19
117,2,10,10,-6,16,6,-4,17
118,2,6,12,-5,16,5,-3,16
119,2,2,13,-4,14,4,-2,14
120,2,-1,12,-2,13,4,-1,13
121,2,-2,10,-1,12,4,0,14
122,3,-2,7,1,11,4,0,14
123,4,-2,4,2,10,4,1,16
124,5,-3,3,3,8,5,0,16
125,5,-4,5,4,6,7,0,15
126,6,-4,8,4,3,9,0,14
127,6,-4,8,4,-1,10,0,13
128,6,-3,7,3,-3,9,0,13
129,5,-2,6,3,-3,6,0,13
130,4,-2,5,2,-2,2,0,14
131,4,-2,6,2,0,-2,1,15
132,3,-2,7,2,2,-4,1,15
133,3,-2,10,2,3,-4,1,16
134,2,-1,13,2,4,-2,1,16
135,0,-1,16,1,4,1,2,15
136,-1,-1,18,1,5,2,1,14
137,-2,-2,19,0,6,2,1,14
138,-3,-4,20,-1,6,2,0,13
139,-3,-5,20,-2,7,1,-1,14
140,-3,-6,19,-2,8,1,-3,14
141,-2,-7,19,-3,8,2,-4,15
142,-2,-7,20,-2,8,4,-5,15
143,-1,-9,22,-2,7,6,-4,13
144,-1,-10,24,-1,6,8,-3,11
145,1,-10,23,1,6,9,-2,9
146,1,-8,20,2,7,7,0,9
147,1,-6,17,3,9,6,1,10
148,0,-5,15,4,11,5,1,11
149,-1,-3,14,4,13,5,1,13
150,-2,-3,15,4,15,5,1,13
151,-3,-4,18,4,15,5,1,13
152,-4,-5,22,3,15,7,1,11
153,-4,-6,25,3,13,8,1,11
154,-5,-6,27,2,12,8,1,11
155,-6,-7,27,2,11,8,1,11
156,-6,-7,27,2,10,8,0,12
157,-6,-8,26,2,9,6,0,12
158,-7,-10,25,2,9,4,-1,11
159,-7,-13,24,2,8,4,-2,9
160,-7,-16,25,1,7,5,-3,6
161,-7,-16,25,0,6,7,-4,5
162,-6,-14,24,-1,5,9,-4,5
163,-4,-10,22,0,6,10,-3,8
164,-3,-6,20,1,7,9,-2,11
165,-1,-2,20,2,9,8,-1,14
166,0,1,20,3,11,7,-1,17
167,1,4,19,3,14,6,0,21
168,1,7,15,4,17,3,1,24
169,1,9,11,4,19,1,2,26
170,2,11,8,4,20,0,3,27
171,2,13,8,4,19,2,4,28
172,3,13,9,4,17,4,5,28
173,5,14,11,5,15,7,6,28
174,6,13,14,5,14,10,7,28
175,7,12,17,5,14,11,8,27
176,7,10,17,5,15,9,9,27
177,6,9,18,5,16,6,9,27
178,6,8,17,5,17,4,8,27
179,5,8,17,5,17,2,8,28
180,5,8,16,6,15,2,7,29
181,6,7,14,6,13,2,7,30
182,7,6,13,6,11,4,7,30
183,8,5,13,5,8,6,7,28
184,10,5,13,4,6,7,8,27
185,12,6,13,3,5,8,9,27
186,14,8,12,2,5,8,9,28
187,15,9,12,1,6,8,9,29
188,15,9,12,1,6,8,8,29
189,13,10,11,1,8,8,8,30
190,12,13,10,1,10,6,7,31
191,12,16,7,1,12,4,7,33
192,12,19,6,1,14,2,6,33
193,12,20,6,1,15,2,6,34
194,13,20,6,0,16,4,6,33
195,13,19,8,-1,16,5,6,32
196,12,17,10,-1,16,7,6,32
197,12,14,13,-1,16,8,6,31
198,11,11,14,-1,16,8,7,31
199,10,9,15,-1,16,6,7,30
200,9,7,14,-1,14,5,6,29
201,9,4,13,-1,11,6,6,28
202,9,3,12,-2,8,7,6,27
203,10,2,11,-2,6,7,6,27
204,9,2,9,-2,5,6,7,27
205,9,2,7,-2,6,4,7,28
206,8,3,6,-2,7,-1,7,28
207,7,4,6,-2,8,-4,7,29
208,6,5,5,-1,8,-6,6,29
209,5,5,6,-1,8,-7,5,29
210,4,6,6,-1,7,-5,4,28
211,3,7,7,-2,6,-3,3,26
212,3,8,6,-2,6,-2,2,25
213,3,8,5,-2,6,-3,2,24
214,4,8,5,-2,6,-4,2,22
215,4,7,6,-2,6,-2,2,21
216,5,7,6,-2,5,-1,2,20
217,5,7,6,-2,6,0,3,21
218,5,8,5,-2,7,-1,3,22
219,5,9,5,-2,9,-3,3,23
220,5,11,5,-1,11,-4,4,24
221,4,12,7,-1,12,-3,4,24
222,4,11,10,-1,10,0,4,23
223,4,9,13,-1,8,4,4,21
224,4,7,14,-1,6,5,4,19
225,5,5,14,-1,6,3,5,19
226,5,4,12,-1,6,-1,5,19
227,6,3,11,-2,6,-3,5,20
228,6,2,9,-2,6,-5,4,19
229,5,1,7,-3,3,-5,4,18
230,5,-1,5,-4,1,-6,4,16
231,4,-3,3,-4,-1,-7,4,14
232,4,-4,1,-4,-2,-9,4,13
233,4,-5,0,-4,-2,-10,5,12
234,3,-5,-1,-5,-2,-9,5,11
235,3,-4,1,-5,-2,-6,4,11
236,2,-4,4,-5,-2,-2,2,10
237,1,-3,6,-5,-1,2,1,9
238,1,-2,7,-5,-1,5,0,9
239,1,0,7,-4,0,7,0,9
240,1,2,6,-4,2,6,1,10
241,1,4,4,-3,4,3,1,12
242,2,6,3,-3,6,-1,0,14
243,2,8,3,-3,8,-6,0,17
244,2,10,5,-3,10,-7,-1,19
245,1,10,7,-2,9,-6,-1,19
246,0,10,9,-2,7,-4,-1,18
247,0,8,9,-1,5,-3,0,17
248,1,7,9,0,3,-1,1,17
249,2,7,7,1,2,1,1,17
250,3,7,5,1,1,2,2,18
251,5,8,3,2,1,2,2,19
252,5,9,2,2,1,2,2,19
253,4,8,4,2,0,3,2,17
254,3,6,6,2,-1,3,2,15
255,2,5,6,2,-2,2,2,14
256,2,5,4,2,-2,2,2,14
257,2,5,2,3,-2,3,2,15
258,2,6,-1,3,-1,3,2,17
259,3,7,-2,2,1,2,2,18
260,3,7,-2,2,3,0,1,18
261,4,7,1,2,4,-1,1,17
262,4,6,5,2,5,0,1,15
263,5,6,7,3,5,0,0,13
264,6,7,9,3,4,1,0,13
265,6,6,11,3,3,3,-1,11
266,5,5,12,3,2,5,-3,9
267,3,4,11,1,1,5,-4,6
268,1,3,10,0,1,4,-6,4
269,0,2,9,0,2,3,-7,3
270,-1,2,9,0,2,2,-7,4
271,0,3,8,1,3,2,-6,7
272,0,4,8,1,4,2,-4,9
273,1,4,7,1,5,1,-2,12
274,1,4,6,1,5,0,0,14
275,1,4,6,1,5,-1,1,15
276,1,2,6,1,5,0,1,16
277,1,0,8,1,4,2,0,16
278,1,-3,8,1,2,5,0,15
279,0,-5,8,1,0,6,0,15
280,0,-5,7,1,-1,6,0,15
281,-1,-6,6,2,-1,5,1,16
282,-1,-5,5,2,0,3,1,16
283,-2,-4,6,2,1,2,1,15
284,-3,-3,7,2,1,3,1,14
285,-3,-1,6,1,1,2,0,13
286,-3,1,4,1,2,1,-1,13
287,-3,4,2,0,2,1,-1,12
288,-4,5,2,-1,3,2,-2,11
289,-5,6,4,-1,4,1,-3,11
290,-6,7,5,-2,7,-2,-4,11
291,-8,8,6,-2,9,-5,-5,11
292,-8,8,6,-2,11,-8,-6,11
293,-9,6,7,-2,12,-10,-7,12
294,-9,5,8,-2,12,-10,-7,11
295,-8,3,10,-1,10,-6,-6,9
296,-8,2,13,-1,8,-1,-6,7
297,-7,2,14,0,6,2,-5,7
298,-7,2,14,1,6,1,-5,8
299,-6,2,12,2,7,-1,-5,10
300,-6,2,10,2,9,-4,-5,12
301,-6,2,10,2,9,-6,-6,13
302,-5,3,10,3,10,-7,-6,14
303,-5,4,9,2,10,-6,-6,16
304,-4,6,7,2,8,-2,-6,17
305,-3,6,6,2,6,2,-5,17
306,-3,6,5,1,5,5,-4,17
307,-3,6,6,0,3,7,-4,17
308,-3,4,8,-1,2,8,-4,16
309,-4,2,11,-2,1,8,-6,15
310,-5,1,15,-2,1,10,-7,13
311,-6,-1,18,-3,-1,12,-8,12
312,-7,-2,19,-3,-1,12,-10,10
313,-7,-1,16,-3,1,10,-10,10
314,-7,1,10,-2,4,6,-11,11
315,-7,4,3,-2,8,0,-11,12
316,-6,6,-3,-2,12,-6,-11,14
317,-6,7,-5,-3,15,-10,-11,16
318,-5,7,-4,-3,16,-9,-11,17
319,-4,7,0,-4,17,-7,-11,17
320,-4,6,2,-4,17,-5,-11,17
321,-3,5,3,-3,17,-5,-11,17
322,-4,5,3,-3,16,-4,-10,17
323,-4,5,4,-3,15,-2,-10,17
324,-5,6,6,-3,13,-1,-9,16
325,-5,8,8,-4,12,1,-8,17
326,-6,10,9,-4,11,3,-7,17
327,-6,13,7,-4,10,3,-6,19
328,-5,15,5,-5,9,4,-5,20
329,-5,15,4,-5,7,4,-5,19
330,-4,12,5,-6,4,6,-4,18
331,-3,9,5,-6,1,7,-3,15
332,-2,6,6,-6,-2,8,-3,13
333,-1,4,7,-6,-3,9,-2,11
334,0,3,7,-6,-4,9,-2,10
335,1,3,7,-6,-5,10,-2,9
336,2,5,7,-6,-5,11,-3,9
337,2,7,7,-5,-5,12,-2,8
338,3,8,7,-5,-3,13,-1,9
339,4,10,6,-4,-1,12,0,10
340,5,13,4,-4,2,9,1,12
341,5,14,4,-3,5,7,2,14
342,5,16,5,-3,8,5,3,15
343,4,16,7,-2,10,4,3,16
344,3,16,9,-2,13,2,4,17
345,2,15,11,-2,14,1,4,17
346,2,14,12,-1,15,1,4,17
347,2,12,12,-1,14,1,4,17
348,2,10,12,-1,13,3,3,17
349,2,9,12,-1,11,5,1,16
350,2,7,13,-2,9,8,1,14
351,2,5,13,-2,7,10,1,13
352,2,4,12,-2,5,9,1,13
353,2,4,9,-3,5,7,2,13
354,2,3,6,-2,4,4,2,13
355,3,2,6,-2,4,3,3,12
356,4,2,8,-2,3,2,4,12
357,5,2,11,-1,3,4,5,12
358,7,3,13,-1,2,6,7,13
359,9,4,14,-1,1,7,8,15
360,10,4,14,-1,1,7,9,16
361,11,4,12,-1,1,6,9,17
362,10,4,10,-1,1,5,8,17
363,9,4,8,-1,2,3,7,18
364,8,5,5,-1,4,1,6,19
365,7,7,3,-1,5,-1,5,19
366,6,8,1,-1,6,-3,4,19
367,6,8,2,0,7,-4,4,18
368,5,7,4,1,6,-4,4,16
369,5,6,5,2,5,-2,5,14
370,5,6,5,3,5,-3,5,14
371,5,7,6,3,7,-5,6,16
372,6,8,6,3,11,-8,7,18
373,6,9,5,3,13,-10,7,20
374,6,9,5,2,15,-10,7,21
375,5,8,7,1,14,-7,6,21
376,5,6,10,0,11,-4,6,19
377,5,3,13,-1,8,1,5,17
378,4,-1,17,-1,5,4,5,13
379,4,-4,20,-2,2,7,4,10
380,3,-7,21,-2,-1,10,4,8
381,3,-8,21,-3,-2,11,3,6
382,3,-7,18,-3,-3,10,3,5
383,3,-6,16,-3,-2,10,3,6
384,4,-3,14,-2,-2,10,4,9
385,5,0,14,-2,-1,9,5,11
386,6,3,16,-1,0,9,6,14
387,6,5,17,0,1,10,6,17
388,6,8,17,0,3,10,6,19
389,6,10,17,0,5,10,5,20
390,5,12,16,-1,7,10,4,21
391,4,13,15,-1,9,12,4,21
392,3,13,16,-2,11,13,3,19
393,2,10,16,-2,13,12,2,18
394,1,7,16,-2,16,8,2,17
395,1,5,15,-2,17,4,1,16
396,1,3,13,-2,18,1,1,15
397,1,2,12,-2,16,-1,0,14
398,1,-1,13,-3,14,0,-1,12
399,1,-4,15,-3,10,2,-1,9
400,1,-7,18,-4,7,3,-1,6
401,2,-9,18,-3,5,3,1,5
402,3,-9,16,-3,3,3,3,4
403,3,-8,14,-2,2,3,4,5
404,4,-5,12,-1,1,2,6,5
405,4,-4,10,0,1,1,7,6
406,3,-3,10,0,1,2,8,7
407,3,-3,11,1,1,5,8,7
408,3,-3,14,1,1,8,8,8
409,3,-3,17,2,0,11,8,9
410,2,-4,19,1,0,12,7,11
411,2,-4,19,1,-1,13,6,12
412,2,-5,19,-1,-2,13,5,13
413,2,-6,19,-1,-3,12,4,13
414,2,-7,19,-2,-4,12,3,13
415,2,-8,19,-2,-5,12,1,12
416,1,-11,21,-3,-5,12,0,10
417,0,-14,22,-3,-4,10,-1,8
418,0,-16,23,-3,-3,6,-2,7
419,1,-16,22,-2,0,2,-2,7
420,1,-15,20,-2,2,-3,-2,7
421,1,-14,18,-1,3,-6,-2,6
422,1,-14,18,0,2,-7,-2,5
423,-1,-15,18,0,1,-7,-2,4
424,-3,-17,20,0,-1,-5,-3,2
425,-4,-17,21,0,-3,-3,-3,0
426,-5,-16,22,0,-3,-2,-3,-1
427,-4,-15,22,0,-3,0,-2,-1
428,-3,-13,22,0,-3,1,-2,-1
429,-2,-12,22,-1,-3,3,-1,-1
430,-1,-11,22,-1,-3,5,0,-1
431,0,-10,20,-2,-3,6,0,1
432,0,-9,19,-3,-3,7,1,2
433,0,-7,18,-4,-4,10,1,3
434,0,-6,16,-5,-5,13,2,4
435,1,-4,15,-6,-6,16,3,5
436,2,-3,14,-6,-6,17,4,6
437,4,-1,13,-6,-7,17,5,9
438,5,0,11,-6,-7,17,5,12
439,5,1,8,-5,-6,16,5,14
440,4,1,6,-4,-5,12,4,16
441,3,0,6,-3,-4,8,3,16
442,2,-3,8,-2,-2,4,3,14
443,1,-6,12,-1,1,0,3,12
444,1,-9,16,1,5,-3,2,12
445,1,-12,20,1,8,-5,1,12
446,-1,-14,23,2,9,-5,1,12
447,-2,-16,25,2,9,-4,0,12
448,-4,-17,25,3,6,-3,0,10
449,-5,-17,24,3,3,-3,0,9
450,-5,-16,22,3,0,-2,0,8
451,-5,-14,20,2,-4,-1,0,8
452,-5,-13,17,1,-7,3,-1,8
453,-5,-12,16,0,-9,6,-2,8
454,-5,-12,14,-2,-11,8,-3,9
455,-5,-12,13,-3,-11,9,-4,10
456,-5,-11,13,-4,-10,8,-4,12
457,-5,-9,15,-4,-7,7,-5,16
458,-4,-7,18,-4,-4,6,-4,21
459,-4,-4,22,-3,-1,8,-4,25
460,-3,-3,26,-2,2,12,-4,28
461,-3,-2,31,-2,4,16,-4,30
462,-3,-2,35,-1,6,18,-4,30
463,-3,-3,38,-1,8,18,-4,30
464,-3,-2,40,0,8,17,-5,31
465,-3,-2,41,1,9,16,-5,31
466,-2,-1,39,2,9,13,-5,31
467,-2,-1,37,4,10,9,-4,32
468,-2,-1,35,6,9,7,-3,32
469,-2,-1,35,8,8,6,-3,31
470,-3,-2,35,9,7,7,-3,30
471,-3,-2,36,10,7,7,-2,29
472,-3,-1,35,10,8,5,-2,31
473,-3,-1,35,9,10,4,-2,32
474,-2,-1,35,8,11,4,-2,33
475,-2,0,35,6,13,5,-2,34
476,-3,0,35,4,13,8,-3,34
477,-3,-1,33,2,11,12,-4,32
478,-3,-1,32,0,9,17,-5,31
479,-3,0,30,-1,7,19,-6,30
480,-4,0,28,-2,5,21,-7,29
481,-4,-1,31,-3,3,23,-7,28
482,-5,-4,35,-4,0,25,-8,26
483,-6,-6,40,-5,-1,25,-8,24
484,-6,-8,41,-6,-2,24,-8,24
485,-6,-9,41,-6,-2,24,-9,25
486,-6,-9,42,-6,-2,24,-9,27
487,-5,-7,43,-5,-1,23,-9,31
488,-5,-6,44,-4,1,22,-8,35
489,-3,-4,46,-2,4,20,-7,39
490,-2,-1,47,0,6,18,-6,44
491,0,2,45,2,9,15,-4,48
492,2,5,42,4,11,12,-1,52
493,3,7,38,7,13,11,2,55
494,5,7,35,9,15,10,4,56
495,6,6,35,11,17,8,5,56
496,7,4,36,12,19,8,6,56
497,7,3,38,12,20,8,6,55
498,8,2,41,12,20,11,6,55
499,8,1,43,10,18,13,6,55
500,8,1,43,9,16,16,5,54
501,8,1,44,8,14,17,5,54
502,8,-1,45,8,13,16,4,54
503,8,-2,45,8,12,16,3,54
504,7,-2,45,8,10,16,2,54
505,7,-2,44,8,9,17,2,54
506,6,-3,43,8,8,18,1,54
507,6,-3,42,7,7,18,2,53
508,7,-2,42,7,6,18,2,53
509,6,-1,41,6,7,17,3,54
510,6,1,41,5,8,16,3,55
511,5,2,41,4,11,13,4,56
512,4,4,41,4,14,12,4,58
513,4,5,41,4,17,12,4,60
514,4,6,42,4,19,12,4,61
515,4,5,45,5,21,11,3,62
516,5,5,47,5,22,11,3,64
517,6,5,49,5,22,11,2,64
518,6,4,50,5,22,12,3,64
519,6,3,51,6,21,13,3,63
520,6,2,50,6,20,15,4,63
521,7,2,48,7,18,17,4,63
522,7,2,46,7,14,20,5,62
523,8,1,45,7,11,23,5,61
524,8,-1,46,7,9,24,5,60
525,9,-3,47,6,8,23,5,59
526,9,-5,49,6,7,22,5,57
527,9,-7,51,6,7,22,4,56
528,10,-9,52,6,6,23,4,55
529,10,-10,54,7,5,25,4,54
530,10,-10,55,8,5,28,4,55
531,10,-10,56,10,7,30,5,57
532,11,-9,55,11,9,28,6,58
533,11,-8,55,12,13,25,7,61
534,12,-7,54,13,16,23,8,62
535,12,-6,54,13,18,23,8,64
536,13,-5,55,13,19,24,8,66
537,14,-4,57,13,21,24,7,68
538,15,-3,59,13,23,24,7,70
539,16,-3,60,14,25,23,7,72
540,17,-2,61,14,28,22,8,72
541,18,-3,62,14,29,22,8,72
542,19,-3,63,15,29,24,8,72
543,19,-3,62,14,28,26,8,72
544,19,-3,59,14,26,28,8,71
545,18,-4,55,13,23,28,7,70
546,16,-5,51,12,22,25,6,69
547,15,-6,48,11,22,21,5,67
548,14,-7,47,10,23,17,4,67
549,13,-6,47,10,23,15,3,66
550,13,-5,50,10,23,13,3,66
551,12,-4,52,10,23,13,3,67
552,12,-2,53,11,23,13,3,69
553,12,-1,53,12,24,12,2,70
554,12,-2,51,12,25,11,2,72
555,12,-2,49,12,26,10,1,74
556,13,-3,48,12,26,11,1,75
557,13,-5,49,11,27,13,1,76
558,13,-6,51,10,28,14,0,76
559,12,-8,54,9,29,14,0,75
560,12,-10,56,8,29,16,-1,73
561,11,-12,58,7,29,17,-1,71
562,11,-13,59,6,29,17,-2,70
563,11,-13,58,5,30,16,-2,70
564,12,-13,57,5,32,14,-2,71
565,14,-12,56,6,33,12,-1,72
566,17,-11,55,6,33,12,0,73
567,18,-10,54,7,32,14,1,73
568,20,-9,54,8,30,17,2,72
569,20,-8,53,9,28,20,3,71
570,20,-7,52,10,26,20,4,71
571,20,-6,51,11,26,20,4,72
572,21,-5,51,12,27,19,4,72
573,21,-5,51,12,28,19,4,73
574,22,-5,52,12,30,18,4,75
575,22,-5,53,11,32,16,5,76
576,23,-5,54,10,35,14,5,77
577,23,-6,55,9,35,13,5,77
578,23,-7,55,9,34,14,5,76
579,23,-7,56,8,31,18,5,73
580,23,-8,55,7,26,23,6,70
581,23,-9,54,6,23,27,6,66
582,23,-9,53,5,21,29,6,63
583,22,-10,53,4,21,28,6,60
584,21,-11,55,3,22,27,5,57
585,20,-11,57,3,23,27,5,56
586,19,-11,57,3,24,26,5,56
587,19,-9,55,3,25,24,6,57
588,19,-7,50,4,26,21,7,60
589,19,-5,45,4,28,17,7,62
590,19,-4,42,5,29,14,8,64
591,19,-3,40,6,30,13,9,65
592,18,-2,39,7,31,13,9,67
593,18,1,38,7,32,12,9,69
594,18,5,35,7,33,12,9,71
595,19,8,32,6,34,11,8,73
596,19,11,30,5,35,10,8,74
597,19,13,30,3,36,11,8,75
598,19,12,32,2,36,14,8,73
599,18,11,35,1,34,19,7,70
600,17,9,39,1,32,22,6,67
601,15,8,44,1,32,23,4,66
602,13,7,47,1,33,23,3,65
603,11,7,50,1,35,20,1,66
604,10,7,52,0,37,17,0,68
605,10,7,52,-1,40,15,-1,69
606,10,8,52,-2,41,14,-2,71
607,12,9,51,-2,42,14,-1,73
608,14,11,50,-2,43,14,0,75
609,17,13,48,-2,45,14,2,76
610,19,16,47,-1,46,14,4,78
611,20,18,46,-1,47,14,5,80
612,20,19,46,0,49,14,5,81
613,21,19,46,0,50,13,4,81
614,21,18,48,0,51,13,4,81
615,22,16,49,-1,52,12,3,80
616,22,14,48,-1,52,12,3,78
617,23,13,47,-2,51,14,4,75
618,22,12,46,-4,48,18,3,72
619,22,12,45,-5,46,21,3,69
620,22,13,43,-5,43,23,3,68
621,21,14,41,-5,42,23,2,69
622,21,15,40,-5,43,22,3,70
623,22,15,39,-4,44,19,3,71
624,23,14,39,-4,46,16,4,71
625,24,11,39,-4,46,14,5,70
626,25,9,39,-4,46,14,5,68
627,25,6,40,-3,45,14,6,67
628,26,6,39,-2,45,14,7,66
629,27,7,37,0,44,12,7,66
630,27,8,35,1,43,11,8,66
631,26,8,33,1,41,10,7,65
632,26,9,32,1,40,9,6,64
633,24,8,32,0,39,9,5,62
634,22,8,33,-1,38,10,3,61
635,20,8,34,-2,38,11,1,61
636,18,7,36,-2,38,12,-1,60
637,17,5,38,-2,39,14,-2,60
638,16,4,39,-3,39,16,-3,59
639,15,4,39,-2,39,17,-3,59
640,15,4,39,-2,39,18,-2,59
641,15,4,39,-2,40,17,-1,57
642,16,5,38,-2,40,15,-1,56
643,16,7,36,-2,41,13,0,55
644,17,10,34,-2,42,11,0,56
645,17,13,30,-3,43,10,0,57
646,18,16,24,-5,45,7,0,58
647,18,17,19,-6,45,4,-1,58
648,18,17,17,-8,45,3,-2,57
649,17,15,17,-9,43,3,-4,54
650,16,13,18,-10,42,5,-5,51
651,14,13,19,-11,41,7,-6,49
652,13,13,19,-11,40,9,-6,49
653,12,13,20,-12,39,10,-6,48
654,12,14,21,-12,38,10,-5,46
655,11,13,21,-12,37,8,-4,43
656,11,12,22,-12,35,7,-4,40
657,10,10,23,-11,32,8,-4,36
658,9,9,22,-11,28,10,-6,32
659,9,8,19,-12,25,9,-7,30
660,8,8,16,-12,24,8,-9,27
661,7,8,14,-13,23,7,-10,26
662,7,9,13,-13,25,5,-11,27
663,7,9,12,-13,26,2,-10,27
664,8,8,12,-13,27,1,-10,26
665,8,7,14,-13,25,3,-9,25
666,9,6,14,-12,24,5,-8,25
667,10,7,12,-12,24,5,-7,26
668,11,7,9,-11,24,5,-6,28
669,12,7,8,-10,24,5,-5,28
670,13,7,8,-10,25,6,-5,29
671,14,6,9,-9,26,6,-5,29
672,14,5,12,-9,27,5,-5,28
673,13,6,14,-10,28,3,-6,28
674,12,8,14,-10,29,1,-7,29
675,11,11,12,-11,30,-1,-8,30
676,11,13,9,-12,30,0,-8,29
677,11,12,8,-12,28,2,-7,25
678,11,10,8,-12,27,4,-7,21
679,10,8,8,-12,26,3,-6,18
680,10,8,6,-12,26,0,-5,16
681,9,8,3,-11,26,-3,-4,15
682,8,9,2,-11,26,-5,-4,15
683,7,9,2,-11,24,-2,-5,14
684,7,9,3,-11,23,2,-5,14
685,7,8,6,-12,21,6,-5,13
686,7,7,10,-12,20,7,-5,13
687,7,5,15,-13,20,9,-5,14
688,7,5,18,-13,19,11,-5,14
689,7,5,20,-12,19,12,-4,16
690,7,6,21,-12,20,14,-4,17
691,7,8,20,-11,20,14,-3,18
692,8,11,17,-11,21,12,-2,20
693,9,13,14,-10,24,7,-2,22
694,10,13,13,-10,27,3,-2,22
695,10,12,13,-10,29,0,-1,21
696,11,10,13,-10,29,-1,-2,18
697,11,8,11,-10,28,-1,-2,15
698,11,8,8,-10,26,-1,-2,12
699,12,9,5,-11,24,0,-2,10
700,11,11,3,-12,22,0,-3,9
701,11,13,3,-13,21,0,-3,8
702,11,15,5,-15,21,1,-4,7
703,10,15,8,-16,21,1,-4,6
704,10,16,10,-17,22,1,-4,6
705,10,16,8,-18,23,-1,-3,6
706,11,18,3,-17,25,-4,-2,7
707,11,20,-3,-17,26,-8,-1,8
708,12,22,-8,-17,27,-9,0,9
709,12,24,-10,-17,28,-8,0,9
710,13,25,-10,-16,29,-7,-1,10
711,12,24,-9,-16,30,-7,-1,11
712,12,23,-8,-15,32,-7,-1,12
713,11,21,-9,-14,32,-9,0,12
714,11,19,-9,-13,32,-11,1,11
715,11,17,-10,-12,32,-12,1,9
716,12,14,-9,-11,31,-12,1,7
717,12,11,-7,-11,30,-11,1,5
718,12,9,-5,-11,30,-10,1,3
719,12,7,-5,-11,30,-11,1,2
720,11,7,-6,-11,31,-12,0,1
721,11,8,-7,-11,31,-13,0,1
722,11,10,-8,-11,30,-12,-1,1
723,11,11,-9,-11,28,-11,-1,1
724,11,13,-8,-11,27,-10,0,1
725,11,13,-8,-11,26,-8,1,2
726,11,14,-7,-10,26,-8,1,3
727,10,14,-6,-9,25,-8,2,4
728,10,14,-7,-8,24,-8,3,5
729,10,14,-7,-8,23,-7,4,4
730,10,12,-7,-8,21,-5,4,2
731,10,11,-7,-10,20,-5,4,0
732,10,10,-8,-11,19,-6,3,-3
733,10,9,-10,-11,19,-8,3,-4
734,10,9,-13,-11,20,-13,3,-5
735,10,10,-18,-10,21,-17,4,-5
736,10,11,-21,-9,22,-19,5,-5
737,11,12,-24,-7,21,-18,6,-4
738,12,14,-26,-7,20,-16,6,-3
739,13,15,-27,-6,19,-13,5,-3
740,13,15,-27,-7,18,-10,5,-3
741,12,13,-25,-8,16,-7,4,-5
742,11,12,-24,-9,14,-5,3,-7
743,9,11,-23,-9,13,-4,2,-8
744,8,10,-22,-9,13,-3,2,-8
745,7,9,-22,-10,13,-3,2,-8
746,7,9,-22,-9,13,-4,3,-7
747,7,10,-23,-9,14,-5,3,-6
748,7,10,-23,-9,14,-6,4,-6
749,6,10,-23,-9,14,-6,5,-7
750,6,9,-21,-9,14,-5,5,-8
751,5,7,-20,-9,13,-3,5,-10
752,4,6,-20,-10,13,-3,4,-11
753,4,6,-22,-10,14,-5,3,-11
754,5,6,-22,-11,14,-7,3,-10
755,6,7,-23,-11,14,-10,3,-9
756,7,9,-22,-11,14,-11,4,-8
757,8,9,-20,-11,13,-10,5,-9
758,8,9,-17,-12,11,-6,5,-11
759,8,10,-14,-12,8,-2,5,-13
760,8,12,-13,-12,7,-1,5,-14
761,7,16,-15,-12,8,-4,5,-14
762,6,19,-17,-12,9,-8,4,-13
763,4,20,-17,-12,11,-11,4,-12
764,3,21,-17,-11,11,-11,3,-12
765,0,22,-17,-11,10,-10,2,-13
766,-1,22,-16,-10,10,-9,1,-13
767,-3,22,-16,-10,10,-8,-1,-13
768,-4,21,-16,-11,12,-8,-1,-13
769,-5,21,-15,-11,14,-9,-2,-13
770,-5,20,-15,-12,16,-9,-2,-14
771,-5,19,-14,-12,18,-7,-2,-15
772,-5,18,-13,-12,18,-6,-1,-17
773,-4,16,-12,-11,19,-5,0,-18
774,-3,14,-11,-11,20,-5,1,-19
775,-2,12,-11,-10,20,-7,2,-19
776,-1,10,-12,-9,20,-8,2,-20
777,-1,7,-13,-8,19,-9,3,-22
778,1,3,-12,-8,16,-8,3,-25
779,2,0,-13,-8,13,-7,3,-28
780,3,-2,-14,-8,11,-7,3,-30
781,3,-2,-16,-8,9,-6,3,-31
782,3,-1,-18,-9,8,-6,2,-31
783,2,-1,-19,-10,7,-7,1,-31
784,0,-1,-19,-11,6,-7,0,-31
785,-2,0,-20,-12,5,-8,-1,-32
786,-2,0,-21,-13,4,-7,-2,-32
787,-2,2,-24,-13,2,-7,-1,-32
788,-1,4,-29,-13,0,-8,-1,-32
789,1,6,-35,-12,-1,-10,0,-31
790,3,7,-38,-11,-3,-12,1,-31
791,3,7,-38,-10,-4,-13,1,-31
792,4,8,-36,-9,-4,-15,1,-31
793,4,8,-34,-8,-3,-17,1,-31
794,3,8,-30,-7,-3,-16,1,-31
795,2,7,-26,-7,-4,-13,0,-31
796,1,6,-22,-7,-5,-11,-1,-33
797,0,5,-20,-7,-5,-9,-2,-34
798,-1,6,-20,-7,-6,-8,-3,-35
799,-1,6,-20,-8,-6,-7,-4,-36
800,0,6,-21,-7,-6,-7,-4,-37
801,1,6,-21,-7,-6,-8,-4,-37
802,2,6,-21,-7,-5,-9,-3,-37
803,3,6,-21,-6,-6,-7,-3,-37
804,4,7,-21,-6,-6,-7,-2,-37
805,4,8,-21,-6,-5,-7,-1,-37
806,3,8,-22,-6,-5,-7,-1,-38
807,3,8,-21,-7,-5,-7,-1,-39
808,2,7,-20,-7,-6,-5,-2,-41
809,2,7,-21,-7,-8,-4,-2,-41
810,3,7,-23,-7,-8,-4,-2,-40
811,4,8,-26,-6,-7,-8,-1,-38
812,4,9,-30,-5,-4,-12,-1,-36
813,4,11,-32,-5,0,-17,1,-34
814,3,12,-34,-5,2,-19,1,-32
815,2,13,-33,-5,4,-19,1,-32
816,2,14,-32,-6,4,-15,1,-32
817,1,14,-31,-6,2,-11,0,-32
818,0,14,-28,-7,1,-8,-1,-33
819,-2,13,-26,-7,-1,-7,-3,-35
820,-3,11,-25,-8,-2,-7,-4,-37
821,-5,10,-24,-8,-3,-6,-5,-38
822,-7,8,-24,-8,-3,-7,-6,-40
823,-8,7,-24,-7,-2,-10,-7,-40
824,-10,7,-25,-6,1,-14,-7,-39
825,-11,10,-26,-5,4,-19,-7,-37
826,-11,13,-28,-4,7,-21,-6,-34
827,-10,18,-29,-3,10,-22,-5,-31
828,-9,21,-31,-3,11,-21,-3,-29
829,-8,23,-31,-3,10,-19,-2,-29
830,-7,22,-30,-3,9,-16,-1,-31
831,-7,21,-28,-4,8,-16,0,-33
832,-8,18,-29,-5,6,-16,-1,-34
833,-9,16,-30,-7,4,-16,-2,-34
834,-10,13,-30,-8,1,-15,-3,-36
835,-12,9,-29,-9,-3,-13,-4,-38
836,-13,6,-28,-10,-6,-11,-5,-41
837,-14,4,-27,-11,-8,-9,-5,-43
838,-14,3,-27,-12,-10,-7,-4,-45
839,-14,2,-26,-12,-10,-5,-3,-46
840,-12,3,-26,-11,-10,-4,-2,-46
841,-11,4,-26,-11,-10,-4,0,-45
842,-9,5,-27,-11,-8,-5,1,-44
843,-8,6,-29,-10,-6,-7,3,-43
844,-8,9,-32,-9,-3,-10,4,-41
845,-8,12,-36,-9,-1,-13,5,-39
846,-7,14,-39,-8,1,-14,7,-37
847,-7,15,-40,-8,1,-13,7,-37
848,-7,13,-38,-7,0,-12,7,-38
849,-8,11,-35,-7,0,-13,6,-40
850,-9,10,-31,-7,0,-15,5,-42
851,-10,8,-27,-7,0,-17,4,-43
852,-12,7,-23,-7,-1,-17,3,-45
853,-14,6,-19,-7,-1,-18,2,-47
854,-15,4,-17,-7,-2,-18,2,-48
855,-15,2,-17,-7,-2,-17,1,-49
856,-14,2,-18,-7,-2,-18,2,-48
857,-14,2,-19,-8,-1,-20,2,-47
858,-13,3,-21,-8,-2,-20,2,-46
859,-12,5,-22,-9,-3,-19,2,-47
860,-12,6,-24,-10,-5,-17,1,-48
861,-11,6,-25,-11,-8,-13,1,-50
862,-11,6,-27,-12,-11,-10,0,-53
863,-11,7,-28,-12,-14,-7,0,-54
864,-11,9,-30,-12,-16,-4,0,-54
865,-10,10,-31,-11,-18,-2,0,-55
866,-10,10,-30,-11,-19,-1,0,-56
867,-9,9,-30,-10,-19,-2,0,-56
868,-9,9,-29,-9,-18,-4,1,-55
869,-9,8,-29,-8,-16,-6,1,-55
870,-10,7,-28,-7,-14,-8,1,-54
871,-10,6,-28,-7,-13,-10,1,-54
872,-11,5,-29,-7,-12,-11,1,-55
873,-11,5,-29,-7,-12,-11,1,-55
874,-11,4,-30,-8,-12,-12,1,-56
875,-11,4,-30,-9,-12,-15,0,-56
876,-10,3,-30,-9,-12,-17,0,-55
877,-9,2,-28,-9,-13,-17,-1,-54
878,-8,-1,-26,-10,-14,-16,-2,-53
879,-9,-2,-24,-10,-15,-15,-4,-52
880,-9,-3,-23,-10,-15,-15,-6,-50
881,-10,-3,-25,-10,-15,-17,-7,-49
882,-10,-2,-28,-10,-14,-20,-8,-47
883,-11,-1,-30,-9,-13,-23,-8,-47
884,-11,0,-32,-8,-12,-25,-7,-47
885,-11,0,-33,-6,-11,-25,-5,-48
886,-10,1,-35,-5,-11,-25,-3,-49
887,-9,1,-38,-5,-11,-24,-1,-50
888,-8,1,-41,-5,-11,-23,0,-52
889,-7,2,-44,-5,-11,-22,0,-52
890,-7,3,-46,-6,-10,-21,-1,-52
891,-7,6,-48,-6,-10,-20,-3,-51
892,-6,10,-50,-7,-10,-20,-3,-49
893,-6,12,-52,-8,-11,-19,-4,-48
894,-5,13,-52,-9,-12,-18,-4,-48
895,-5,12,-49,-9,-13,-17,-4,-50
896,-5,10,-44,-9,-14,-15,-3,-52
897,-5,8,-39,-9,-13,-14,-3,-54
898,-4,9,-38,-7,-12,-15,-1,-53
899,-3,11,-39,-6,-9,-16,0,-50
900,-2,13,-41,-4,-7,-16,1,-48
901,-2,13,-42,-2,-5,-18,2,-47
902,-1,12,-42,-1,-4,-19,2,-46
903,-1,9,-39,-1,-4,-20,3,-46
904,-1,7,-36,-1,-4,-22,3,-46
905,-1,6,-33,-1,-5,-23,3,-46
906,-1,6,-33,-2,-5,-25,3,-46
907,-1,6,-35,-3,-6,-27,3,-46
908,0,7,-37,-3,-7,-29,4,-46
909,0,7,-39,-4,-9,-30,4,-47
910,0,7,-41,-4,-12,-29,4,-48
911,-1,5,-42,-5,-16,-26,4,-50
912,-2,2,-41,-6,-19,-21,3,-53
913,-3,-2,-39,-6,-22,-18,3,-57
914,-4,-4,-38,-7,-23,-16,4,-60
915,-5,-5,-38,-6,-23,-16,5,-60
916,-7,-3,-38,-5,-21,-16,6,-59
917,-8,-2,-37,-4,-20,-16,6,-57
918,-9,-1,-36,-4,-19,-15,6,-55
919,-9,-1,-33,-4,-18,-14,6,-55
920,-9,-3,-30,-4,-17,-12,5,-55
921,-8,-4,-29,-4,-17,-9,4,-55
922,-7,-4,-30,-5,-18,-7,3,-54
923,-6,-4,-32,-5,-17,-8,2,-52
924,-5,-3,-35,-5,-16,-11,2,-51
925,-5,-3,-37,-5,-16,-16,2,-50
926,-4,-3,-39,-4,-16,-20,3,-49
927,-5,-3,-40,-3,-16,-22,4,-50
928,-5,-3,-40,-3,-17,-22,5,-51
929,-6,-3,-40,-2,-19,-19,5,-51
930,-7,-2,-38,-2,-21,-16,4,-51
931,-7,-1,-36,-2,-22,-13,4,-50
932,-7,1,-35,-2,-20,-12,4,-48
933,-7,2,-34,-1,-17,-14,3,-46
934,-6,2,-35,-1,-13,-16,4,-43
935,-6,3,-36,-2,-10,-19,4,-40
936,-5,3,-39,-2,-9,-22,4,-38
937,-5,3,-42,-3,-9,-24,4,-36
938,-5,3,-42,-3,-11,-23,4,-36
939,-5,2,-41,-4,-13,-20,4,-36
940,-6,1,-39,-4,-15,-17,4,-37
941,-7,-1,-37,-4,-15,-15,5,-38
942,-7,-3,-34,-3,-16,-14,6,-40
943,-7,-4,-31,-2,-17,-13,6,-41
944,-6,-5,-30,-2,-18,-12,6,-42
945,-5,-5,-31,-1,-19,-11,6,-43
946,-5,-5,-33,-1,-21,-12,6,-43
947,-5,-5,-34,-1,-23,-12,5,-43
948,-7,-5,-34,-1,-25,-12,4,-44
949,-9,-6,-33,-2,-27,-11,1,-46
950,-11,-6,-31,-4,-28,-10,-2,-47
951,-13,-5,-31,-5,-30,-9,-4,-48
952,-14,-4,-31,-6,-30,-8,-6,-48
953,-14,-2,-33,-6,-30,-6,-7,-48
954,-14,0,-35,-6,-30,-4,-6,-47
955,-13,1,-37,-5,-30,-3,-5,-47
956,-11,2,-39,-3,-29,-4,-3,-46
957,-10,2,-41,-1,-28,-7,-2,-45
958,-9,1,-42,0,-26,-11,-1,-44
959,-9,-1,-42,1,-25,-16,0,-44
960,-9,-4,-41,2,-24,-19,0,-45
961,-10,-8,-39,3,-24,-20,0,-46
962,-11,-12,-37,3,-25,-19,-1,-48
963,-12,-14,-35,3,-26,-18,-1,-50
964,-12,-14,-34,4,-28,-17,0,-50
965,-11,-14,-33,4,-29,-17,1,-49
966,-11,-13,-33,5,-30,-18,2,-49
967,-10,-12,-33,5,-30,-20,3,-48
968,-10,-11,-37,5,-30,-23,4,-48
969,-10,-10,-41,5,-29,-26,4,-48
970,-11,-10,-43,4,-29,-26,4,-49
971,-11,-10,-44,3,-30,-25,4,-50
972,-12,-11,-42,3,-32,-22,3,-52
973,-13,-12,-39,2,-35,-17,2,-53
974,-14,-13,-36,2,-38,-12,0,-55
975,-15,-14,-33,1,-39,-10,-1,-56
976,-16,-14,-31,1,-38,-10,-2,-56
977,-17,-13,-30,1,-36,-12,-3,-54
978,-17,-12,-29,2,-33,-14,-3,-52
979,-16,-10,-28,3,-30,-15,-2,-50
980,-15,-8,-30,3,-29,-14,-1,-48
981,-13,-6,-32,3,-29,-11,1,-47
982,-10,-4,-36,3,-31,-9,3,-46
983,-8,-4,-38,3,-32,-9,5,-45
984,-7,-6,-39,2,-33,-11,6,-47
985,-6,-10,-39,1,-33,-14,6,-49
986,-7,-15,-36,0,-34,-16,5,-53
987,-8,-19,-33,-1,-35,-15,4,-56
988,-9,-22,-30,-2,-37,-13,3,-58
989,-10,-22,-28,-2,-37,-11,2,-57
990,-10,-22,-26,-2,-38,-8,1,-56
991,-10,-21,-24,-2,-37,-6,1,-53
992,-10,-20,-24,-2,-36,-5,1,-51
993,-10,-20,-25,-1,-35,-5,2,-49
994,-10,-19,-28,0,-34,-6,2,-48
995,-9,-18,-31,1,-32,-8,3,-47
996,-9,-17,-36,1,-32,-10,3,-48
997,-9,-17,-39,1,-32,-11,2,-49
998,-10,-18,-39,0,-34,-10,1,-52
999,-12,-19,-37,-1,-36,-9,-1,-54
1000,-13,-20,-34,-1,-37,-9,-2,-56
1001,-14,-20,-32,-1,-38,-10,-3,-56
1002,-14,-20,-32,0,-37,-13,-3,-56
1003,-13,-19,-33,1,-36,-16,-3,-55
1004,-13,-18,-34,2,-33,-18,-2,-53
1005,-12,-17,-35,3,-31,-18,-2,-52
1006,-11,-17,-35,3,-29,-17,-1,-50
1007,-11,-16,-34,4,-27,-17,0,-49
1008,-11,-15,-33,4,-26,-18,1,-48
1009,-10,-14,-33,4,-25,-19,2,-46
1010,-10,-12,-35,4,-25,-20,3,-45
1011,-10,-10,-36,4,-25,-21,2,-43
1012,-10,-10,-36,4,-26,-20,2,-43
1013,-10,-10,-34,4,-27,-19,1,-43
1014,-10,-11,-32,4,-28,-17,1,-44
1015,-9,-11,-30,5,-27,-15,1,-44
1016,-9,-10,-30,5,-26,-16,2,-42
1017,-8,-7,-33,5,-25,-18,3,-40
1018,-7,-5,-37,5,-23,-21,3,-37
1019,-7,-3,-41,4,-23,-22,3,-36
1020,-8,-3,-42,3,-24,-22,3,-36
1021,-9,-4,-41,2,-26,-21,2,-38
1022,-9,-5,-38,2,-27,-19,1,-40
1023,-10,-6,-36,2,-27,-19,1,-41
1024,-10,-5,-34,2,-26,-19,1,-41
1025,-10,-4,-33,2,-25,-19,1,-40
1026,-10,-3,-33,2,-23,-19,0,-38
1027,-10,-2,-33,3,-21,-18,0,-36
1028,-10,-2,-33,3,-20,-18,0,-34
1029,-10,-3,-32,3,-19,-16,0,-33
1030,-11,-5,-30,3,-19,-15,0,-32
1031,-11,-7,-27,2,-19,-13,-1,-33
1032,-11,-9,-25,2,-19,-11,-1,-33
1033,-10,-11,-23,3,-20,-10,-1,-34
1034,-9,-12,-23,3,-20,-9,-1,-34
1035,-8,-12,-22,4,-21,-10,-2,-34
1036,-7,-13,-22,5,-24,-9,-1,-35
1037,-5,-14,-22,5,-27,-7,-1,-37
1038,-4,-14,-22,6,-30,-5,-1,-39
1039,-4,-13,-24,6,-32,-5,-1,-39
1040,-3,-11,-28,6,-32,-6,0,-38
1041,-2,-8,-31,6,-32,-5,1,-38
1042,-2,-7,-31,6,-32,-4,1,-37
1043,-1,-6,-29,6,-31,-1,2,-38
1044,-1,-6,-26,6,-30,2,3,-38
1045,-1,-6,-23,6,-29,4,3,-38
1046,-1,-6,-21,5,-28,4,3,-37
1047,-1,-4,-21,5,-26,2,2,-35
1048,-2,-2,-23,5,-23,-2,2,-32
1049,-3,1,-24,5,-20,-6,1,-29
1050,-4,1,-24,5,-17,-10,2,-26
1051,-5,1,-23,5,-14,-13,2,-25
1052,-5,1,-23,6,-12,-16,3,-23
1053,-4,1,-22,6,-12,-17,4,-23
1054,-4,0,-21,5,-13,-14,5,-24
1055,-5,-2,-18,5,-16,-10,5,-26
1056,-7,-4,-15,4,-18,-7,5,-27
1057,-8,-6,-14,4,-19,-6,4,-28
1058,-9,-7,-16,4,-20,-7,3,-28
1059,-9,-8,-18,3,-21,-8,3,-29
1060,-9,-9,-20,3,-23,-8,2,-30
1061,-8,-10,-21,3,-25,-7,2,-32
1062,-9,-10,-21,2,-27,-6,2,-33
1063,-9,-10,-21,3,-28,-4,2,-34
1064,-8,-9,-20,3,-28,-2,2,-33
1065,-7,-8,-19,3,-27,-1,2,-31
1066,-6,-7,-17,4,-24,-1,2,-29
1067,-5,-7,-16,5,-21,-2,2,-28
1068,-5,-7,-14,6,-19,-2,2,-27
1069,-5,-6,-13,6,-17,-3,2,-26
1070,-5,-5,-12,7,-15,-3,1,-24
1071,-5,-4,-12,7,-14,-2,1,-23
1072,-4,-3,-12,6,-13,-1,1,-22
1073,-4,-3,-12,6,-12,-1,1,-21
1074,-4,-4,-11,6,-11,-2,1,-21
1075,-4,-5,-10,5,-10,-4,1,-21
1076,-5,-6,-9,5,-10,-5,1,-21
1077,-5,-8,-10,5,-11,-3,1,-22
1078,-4,-8,-12,5,-13,-1,0,-21
1079,-3,-6,-16,5,-16,1,0,-19
1080,-1,-4,-21,5,-18,1,0,-18
1081,0,-3,-24,6,-19,-1,2,-17
1082,1,-4,-23,6,-20,-2,3,-18
1083,1,-7,-20,5,-21,-2,3,-20
1084,0,-12,-15,4,-22,-3,3,-23
1085,-1,-17,-12,4,-21,-4,2,-25
1086,-1,-18,-11,4,-21,-7,2,-26
1087,-2,-18,-13,4,-20,-10,1,-25
1088,-3,-17,-14,4,-20,-12,1,-24
1089,-4,-17,-13,3,-21,-12,0,-25
1090,-5,-18,-11,3,-23,-8,-1,-26
1091,-7,-19,-9,3,-25,-4,-2,-27
1092,-8,-20,-6,2,-25,-1,-3,-26
1093,-8,-20,-3,3,-24,1,-3,-25
1094,-8,-18,1,3,-22,3,-3,-22
1095,-7,-17,3,4,-20,4,-3,-19
1096,-7,-14,3,5,-18,3,-3,-17
1097,-6,-13,1,6,-16,0,-3,-14
1098,-5,-12,-2,7,-14,-5,-4,-13
1099,-3,-13,-6,7,-13,-10,-4,-12
1100,-2,-13,-8,8,-12,-13,-4,-12
1101,-2,-14,-8,8,-12,-12,-4,-14
1102,-2,-14,-7,8,-14,-8,-4,-16
1103,-2,-13,-8,7,-16,-2,-4,-17
1104,-1,-9,-9,7,-17,2,-4,-17
1105,-1,-5,-13,6,-18,3,-4,-15
1106,-1,-3,-17,6,-17,0,-5,-14
1107,-1,-3,-21,5,-15,-6,-6,-13
1108,-2,-4,-23,4,-13,-12,-7,-14
1109,-3,-6,-25,4,-11,-17,-7,-15
1110,-4,-7,-24,3,-10,-18,-7,-16
1111,-4,-9,-22,4,-11,-15,-6,-18
1112,-4,-9,-20,4,-12,-10,-6,-18
1113,-4,-9,-19,4,-13,-8,-6,-18
1114,-4,-7,-20,4,-12,-8,-6,-17
1115,-4,-5,-21,4,-12,-9,-6,-16
1116,-5,-3,-21,4,-13,-8,-7,-16
1117,-5,-2,-20,3,-15,-6,-7,-16
1118,-5,-2,-20,3,-18,-4,-6,-18
1119,-5,-3,-20,3,-20,-1,-5,-20
1120,-5,-4,-19,3,-22,1,-5,-21
1121,-4,-5,-20,4,-22,1,-4,-21
1122,-3,-5,-20,4,-22,0,-3,-20
1123,-2,-4,-20,4,-21,0,-3,-19
1124,-2,-4,-18,4,-21,-1,-3,-19
1125,-2,-4,-17,4,-20,-2,-3,-18
1126,-2,-4,-16,3,-19,-4,-4,-18
1127,-1,-4,-16,2,-19,-6,-4,-18
1128,-1,-5,-14,2,-18,-7,-4,-18
1129,0,-7,-14,2,-17,-7,-4,-18
1130,1,-9,-13,2,-16,-7,-3,-18
1131,3,-11,-13,2,-16,-8,-2,-18
1132,3,-12,-13,2,-14,-10,-1,-17
1133,3,-14,-13,2,-14,-13,0,-17
1134,2,-17,-12,1,-14,-14,0,-19
1135,1,-20,-9,0,-16,-13,0,-22
1136,-1,-23,-6,-1,-19,-12,0,-25
1137,-2,-24,-6,-1,-22,-10,0,-28
1138,-2,-24,-7,-1,-25,-8,0,-29
1139,-3,-23,-9,-1,-28,-5,-1,-29
1140,-4,-20,-11,0,-29,-2,-2,-27
1141,-5,-18,-11,1,-29,-1,-3,-25
1142,-6,-16,-9,1,-26,-2,-4,-23
1143,-8,-15,-7,1,-23,-5,-4,-21
1144,-9,-13,-4,1,-19,-9,-5,-19
1145,-11,-11,-2,1,-16,-11,-5,-18
1146,-12,-10,-1,1,-15,-9,-5,-19
1147,-12,-9,-2,2,-15,-6,-5,-21
1148,-13,-8,-4,2,-16,-3,-5,-22
1149,-13,-7,-7,2,-16,-2,-4,-23
1150,-12,-6,-11,2,-16,-5,-4,-22
1151,-12,-5,-15,2,-13,-11,-4,-21
1152,-12,-5,-16,2,-11,-16,-4,-19
1153,-12,-5,-16,2,-10,-18,-4,-18
1154,-11,-6,-14,2,-10,-19,-3,-17
1155,-11,-8,-15,1,-10,-18,-3,-17
1156,-10,-10,-16,1,-12,-16,-2,-18
1157,-9,-14,-16,1,-16,-13,-2,-20
1158,-8,-18,-15,0,-18,-11,-1,-22
1159,-7,-20,-14,0,-19,-10,0,-23
1160,-6,-22,-12,0,-19,-8,1,-24
1161,-6,-23,-11,0,-19,-8,1,-24
1162,-5,-24,-12,1,-18,-9,2,-23
1163,-5,-25,-13,1,-18,-11,2,-23
1164,-4,-26,-13,1,-19,-13,2,-23
1165,-3,-27,-11,2,-21,-14,3,-22
1166,-3,-27,-8,3,-21,-14,3,-21
1167,-2,-25,-5,3,-21,-13,3,-20
1168,-3,-23,-2,2,-21,-10,2,-20
1169,-3,-19,-2,2,-20,-7,1,-18
1170,-4,-13,-4,1,-18,-5,-1,-16
1171,-5,-8,-6,1,-15,-4,-2,-12
1172,-6,-3,-9,1,-12,-4,-4,-9
1173,-7,1,-10,2,-10,-4,-5,-6
1174,-7,2,-9,2,-9,-4,-5,-4
1175,-8,1,-7,3,-9,-3,-6,-5
1176,-8,-1,-4,2,-9,-2,-6,-8
1177,-8,-4,-2,2,-10,-3,-6,-11
1178,-7,-7,0,1,-11,-5,-6,-14
1179,-7,-10,0,1,-11,-8,-6,-16
1180,-5,-12,-3,1,-12,-11,-6,-16
1181,-4,-12,-6,2,-12,-16,-5,-15
1182,-3,-12,-11,3,-12,-19,-4,-14
1183,-1,-10,-14,3,-13,-20,-2,-13
1184,-1,-10,-16,3,-14,-20,0,-13
1185,-1,-10,-16,2,-15,-18,1,-13
1186,-2,-12,-15,1,-17,-15,2,-14
1187,-3,-14,-12,1,-19,-10,2,-14
1188,-3,-16,-10,0,-23,-6,2,-14
1189,-4,-17,-9,0,-26,-3,2,-13
1190,-4,-17,-10,1,-28,-3,2,-11
1191,-4,-17,-12,2,-28,-3,3,-8
1192,-4,-16,-14,3,-27,-5,3,-6
1193,-4,-14,-16,4,-24,-7,4,-2
1194,-4,-14,-16,6,-20,-7,4,0
1195,-4,-13,-13,7,-17,-6,4,2
1196,-4,-14,-9,7,-13,-4,4,2
1197,-4,-15,-5,7,-9,-3,3,2
1198,-4,-17,-1,7,-6,-4,3,1
1199,-3,-19,3,7,-4,-5,3,-1
1200,-3,-20,5,7,-2,-7,3,-3
1201,-3,-20,5,7,-2,-9,3,-4
1202,-3,-19,3,6,-2,-11,3,-5
1203,-4,-18,1,5,-1,-14,1,-6
1204,-4,-17,-1,4,-1,-16,-1,-6
1205,-5,-16,-2,4,-2,-17,-2,-6
1206,-5,-16,-1,3,-3,-15,-4,-7
1207,-5,-16,1,2,-5,-12,-5,-7
1208,-4,-13,1,2,-5,-9,-5,-6
1209,-4,-9,-1,1,-5,-8,-5,-4
1210,-3,-6,-3,1,-5,-7,-4,-3
1211,-4,-5,-4,1,-4,-7,-4,-3
1212,-4,-5,-5,1,-3,-9,-4,-3
1213,-4,-5,-5,1,-3,-12,-4,-3
1214,-5,-7,-4,1,-2,-15,-3,-4
1215,-4,-8,-2,1,-2,-17,-3,-4
1216,-3,-8,1,1,-1,-17,-2,-4
1217,-2,-9,4,0,0,-16,-1,-5
1218,-1,-10,7,0,0,-12,0,-5
1219,0,-10,9,0,-1,-9,1,-6
1220,1,-10,9,-1,-1,-6,1,-5
1221,1,-10,9,-1,-2,-5,1,-5
1222,1,-9,6,-1,-2,-5,1,-4
1223,0,-9,3,-1,-3,-6,1,-4
1224,-1,-9,0,-1,-4,-7,0,-6
1225,-1,-9,-4,-1,-5,-9,-1,-7
1226,-2,-8,-7,-1,-6,-10,-2,-7
1227,-2,-7,-8,-1,-7,-11,-2,-7
1228,-2,-5,-8,-2,-7,-10,-3,-5
1229,-2,-3,-7,-2,-7,-10,-2,-4
1230,-2,-3,-4,-2,-7,-9,-2,-2
1231,-1,-4,-1,-1,-7,-7,-1,-2
1232,-1,-6,1,-1,-8,-4,-1,-2
1233,-1,-8,2,-1,-8,-2,-1,-2
1234,-2,-10,3,-1,-7,-1,-1,-2
1235,-3,-11,3,-1,-6,-2,-1,-2
1236,-4,-11,3,-1,-4,-4,-1,-1
1237,-5,-11,5,-1,-3,-4,-1,0
1238,-5,-9,6,-1,-3,-4,-2,1
1239,-4,-6,4,0,-3,-4,-2,4
1240,-3,-2,1,1,-4,-4,-2,8
1241,-3,1,-3,2,-4,-4,-2,12
1242,-2,3,-5,3,-4,-4,-1,14
1243,-1,3,-6,4,-3,-3,0,14
1244,0,2,-3,4,-2,-1,1,14
1245,1,0,0,5,-1,1,2,13
1246,2,0,3,6,1,2,2,13
1247,2,1,4,7,2,1,3,14
1248,3,3,4,8,4,1,3,15
1249,3,4,4,8,5,1,4,16
1250,3,6,4,8,6,2,4,16
1251,3,6,3,8,6,2,5,14
1252,4,6,3,8,5,3,6,12
1253,5,5,3,8,3,2,6,9
1254,5,3,4,8,2,2,7,7
1255,5,2,5,8,0,1,7,5
1256,4,0,4,8,-1,1,7,4
1257,3,-1,3,7,-3,1,7,4
1258,2,-2,0,7,-4,1,7,4
1259,1,-2,-3,7,-7,1,7,4
1260,1,-4,-4,7,-8,-1,6,4
1261,1,-5,-4,7,-10,-2,5,5
1262,2,-5,-2,6,-11,-2,5,5
1263,2,-6,1,6,-12,-2,4,5
1264,2,-7,4,5,-12,-1,4,4
1265,1,-8,7,4,-14,2,4,3
1266,-2,-9,8,3,-16,5,4,1
1267,-4,-10,8,2,-17,7,3,-2
1268,-6,-10,6,1,-17,8,2,-3
1269,-7,-9,4,1,-15,6,2,-3
1270,-6,-7,1,0,-12,3,1,-2
1271,-5,-5,-1,1,-10,3,1,-1
1272,-4,-3,-1,1,-8,4,2,0
1273,-3,-1,-1,2,-6,5,2,2
1274,-1,1,-2,3,-5,2,2,3
1275,-1,2,-2,5,-2,-3,2,4
1276,0,1,-1,5,0,-8,2,5
1277,-1,1,1,5,3,-12,1,6
1278,-1,1,0,4,5,-13,0,6
1279,-2,1,0,2,4,-10,-2,6
1280,-3,0,0,1,2,-6,-3,4
1281,-4,1,0,1,0,-4,-3,3
1282,-4,2,-1,1,0,-6,-2,3
1283,-3,3,-3,2,1,-8,-1,5
1284,-2,6,-5,4,2,-9,1,7
1285,1,8,-8,5,3,-8,2,10
1286,2,11,-9,6,3,-6,3,12
1287,4,12,-10,7,2,-3,4,13
1288,4,13,-9,7,0,-1,4,12
1289,5,12,-8,7,-2,1,5,11
1290,4,12,-5,6,-2,0,5,10
1291,3,10,-3,6,-1,-4,6,8
1292,2,8,-1,7,2,-8,5,7
1293,0,6,2,7,3,-10,5,6
1294,-2,4,4,7,5,-11,4,5
1295,-4,3,4,7,6,-9,3,3
1296,-5,3,3,7,5,-6,3,2
1297,-5,4,1,7,5,-4,3,2
1298,-4,4,-1,6,5,-4,3,2
1299,-3,4,-3,5,6,-6,3,3
1300,-3,4,-4,4,7,-8,3,4
1301,-2,2,-4,3,6,-10,2,4
1302,-3,1,-5,2,5,-12,1,3
1303,-3,0,-4,1,3,-14,-1,3
1304,-4,-2,-1,1,2,-15,-1,2
1305,-4,-5,3,1,2,-16,-2,2
1306,-4,-9,7,2,1,-15,-1,0
1307,-3,-11,9,3,-1,-15,-1,-1
1308,-1,-12,8,5,-2,-14,0,-1
1309,1,-11,3,6,-3,-16,1,0
1310,3,-8,-2,7,-4,-17,2,2
1311,4,-4,-5,8,-4,-18,3,5
1312,5,-1,-7,9,-3,-17,4,8
1313,4,2,-7,9,-3,-13,4,9
1314,4,4,-5,9,-4,-9,4,10
1315,3,4,-5,8,-4,-7,4,11
1316,2,5,-4,7,-3,-7,4,12
1317,0,5,-3,5,-2,-6,4,13
1318,-1,5,-1,3,-2,-5,3,13
1319,-2,4,2,1,-2,-3,2,12
1320,-3,3,4,-1,-2,-2,1,11
1321,-3,4,4,-1,-2,-4,0,10
1322,-3,5,3,-2,-1,-6,0,10
1323,-4,5,3,-2,1,-9,-1,9
1324,-3,3,2,-2,3,-13,-1,8
1325,-4,0,3,-2,3,-15,-1,5
1326,-4,-4,4,-2,1,-14,-2,2
1327,-5,-6,4,-2,-3,-13,-2,-2
1328,-5,-6,1,-1,-7,-13,-2,-3
1329,-5,-4,-5,0,-10,-14,-1,-4
1330,-4,-3,-10,1,-13,-14,1,-4
1331,-3,-3,-12,3,-14,-13,2,-5
1332,-2,-5,-10,4,-14,-12,3,-5
1333,-1,-8,-8,4,-12,-12,3,-5
1334,0,-9,-5,5,-8,-11,3,-4
1335,1,-8,-4,4,-3,-9,2,-2
1336,2,-7,-3,3,0,-6,2,-1
1337,3,-6,-3,2,2,-3,2,0
1338,3,-6,-3,1,1,-1,2,-1
1339,4,-6,-4,0,-1,1,3,-1
1340,5,-6,-4,-1,-3,1,4,-1
1341,5,-6,-5,-1,-4,-1,4,0
1342,5,-6,-5,-2,-5,-2,4,1
1343,5,-8,-4,-2,-5,-3,4,1
1344,4,-9,-1,-3,-5,-3,2,0
1345,3,-8,2,-3,-4,-2,1,0
1346,2,-7,4,-2,-3,-2,0,1
1347,1,-6,5,-1,-2,-1,-1,2
1348,0,-5,6,0,-3,2,-2,2
1349,0,-5,8,0,-5,5,-1,2
1350,0,-5,9,1,-6,5,-1,3
1351,1,-4,9,2,-4,1,0,5
1352,3,-3,7,2,-2,-4,1,6
1353,4,-3,5,2,-1,-7,2,6
1354,5,-5,5,3,-1,-7,2,5
1355,6,-7,5,3,-3,-3,3,2
1356,7,-7,4,2,-5,3,3,1
1357,6,-6,2,1,-6,8,3,1
1358,5,-4,-2,1,-6,9,3,2
1359,4,-2,-5,-1,-5,7,3,3
1360,3,-2,-7,-2,-5,5,4,3
1361,2,-3,-6,-3,-6,4,4,2
1362,2,-5,-3,-3,-8,4,5,-1
1363,2,-8,0,-4,-9,5,5,-3
1364,2,-9,3,-4,-10,6,4,-4
1365,3,-11,5,-4,-11,6,4,-4
1366,3,-12,7,-3,-12,6,4,-6
1367,3,-13,9,-2,-13,6,4,-7
1368,3,-13,10,0,-13,7,3,-7
1369,3,-12,10,0,-13,8,3,-7
1370,2,-11,9,1,-13,8,2,-7
1371,1,-11,9,0,-12,8,0,-6
1372,0,-11,9,0,-11,6,-1,-5
1373,-1,-13,10,0,-9,3,-2,-5
1374,0,-14,12,-1,-7,2,-2,-5
1375,1,-15,13,0,-7,3,-2,-6
1376,2,-15,15,0,-6,3,0,-6
1377,3,-13,14,2,-6,3,1,-6
1378,4,-11,13,3,-5,2,3,-6
1379,4,-9,12,3,-3,2,3,-4
1380,4,-7,11,4,-1,1,3,-2
1381,4,-5,10,3,0,0,3,0
1382,3,-4,8,3,0,0,2,0
1383,3,-4,6,3,-1,1,2,-1
1384,3,-4,4,3,-4,2,2,-3
1385,2,-5,2,3,-6,2,2,-4
1386,2,-6,0,3,-8,2,3,-5
1387,2,-7,0,3,-8,1,3,-6
1388,2,-6,1,3,-7,0,2,-6
1389,2,-5,0,3,-6,-2,2,-5
1390,2,-4,0,3,-4,-4,2,-3
1391,1,-3,0,3,-2,-5,2,-2
1392,2,-3,0,3,0,-5,3,-2
1393,2,-4,1,3,1,-3,4,-2
1394,3,-6,3,3,1,0,5,-2
1395,4,-7,6,3,2,1,5,-1
1396,5,-8,7,4,2,0,6,0
1397,5,-7,6,5,2,-1,6,2
1398,4,-7,5,5,2,-3,6,3
1399,3,-7,5,5,3,-6,6,4
1400,2,-6,5,5,4,-7,6,4
1401,1,-6,6,5,4,-5,5,4
1402,-1,-4,7,3,2,-2,4,3
1403,-2,-3,8,1,1,3,3,2
1404,-3,-2,9,-1,-1,6,1,1
1405,-3,-1,9,-2,-1,8,0,1
1406,-2,1,8,-3,-1,10,0,2
1407,-1,3,6,-3,1,10,-1,3
1408,1,5,6,-3,3,9,0,5
1409,1,5,6,-3,4,7,0,6
1410,1,5,6,-3,6,5,0,7
1411,1,4,5,-3,6,3,0,6
1412,0,3,4,-3,6,2,-1,5
1413,0,2,2,-2,5,2,-1,5
1414,1,2,-1,-2,4,3,-2,6
1415,2,3,-3,0,4,2,-1,8
1416,3,3,-4,1,4,1,0,9
1417,4,4,-4,3,5,1,1,11
1418,5,5,-4,4,6,0,2,14
1419,5,7,-5,5,8,-2,2,17
1420,5,9,-6,6,10,-4,2,19
1421,4,10,-7,6,11,-6,2,20
1422,3,12,-8,5,12,-7,2,21
1423,2,11,-9,4,12,-7,1,18
1424,1,9,-8,2,10,-4,1,14
1425,0,7,-5,0,6,1,0,9
1426,-1,5,-2,-2,4,6,-2,5
1427,-2,3,1,-3,2,8,-3,1
1428,-3,2,3,-3,2,7,-4,-1
1429,-4,1,5,-3,2,6,-4,-2
1430,-3,1,7,-2,3,4,-4,-2
1431,-2,1,8,0,4,3,-3,-2
1432,-1,2,7,2,4,2,-1,0
1433,1,5,5,4,4,0,1,2
1434,2,7,1,5,3,-1,3,3
1435,2,10,-3,6,1,-1,4,5
1436,3,11,-5,6,0,-1,5,6
1437,2,10,-6,6,-1,-2,5,6
1438,2,8,-6,5,1,-4,5,7
1439,2,7,-5,5,3,-6,5,9
1440,2,5,-4,4,5,-7,4,9
1441,1,2,-2,3,5,-7,2,8
1442,-1,0,-1,3,5,-5,0,7
1443,-2,-1,0,3,4,-4,-2,6
1444,-4,0,-1,3,3,-3,-4,5
1445,-5,3,-2,2,2,-3,-5,5
1446,-6,6,-5,2,3,-5,-5,6
1447,-6,10,-7,2,3,-5,-5,6
1448,-6,12,-9,1,3,-5,-5,6
1449,-6,12,-8,1,3,-5,-4,5
1450,-5,10,-6,0,4,-6,-4,4
1451,-4,7,-2,0,6,-8,-3,3
1452,-2,5,2,1,7,-10,-2,4
1453,-1,3,3,1,8,-10,-1,6
1454,1,3,4,1,7,-9,0,7
1455,1,4,2,2,5,-7,1,8
1456,1,5,-1,3,3,-7,2,9
1457,1,7,-3,3,1,-6,2,9
1458,1,8,-3,4,-1,-4,2,9
1459,2,9,-3,5,-3,-2,3,9
1460,2,10,-3,6,-5,0,3,9
1461,2,10,-3,6,-6,1,3,8
1462,2,10,-3,5,-6,1,3,7
1463,2,9,-2,5,-6,1,3,6
1464,2,7,1,4,-5,1,3,5
1465,1,4,3,3,-4,0,2,5
1466,-1,2,5,2,-2,0,1,4
1467,-3,-1,7,1,-1,1,0,4
1468,-5,-3,8,0,1,1,-1,3
1469,-6,-4,8,-2,3,-2,-1,3
1470,-6,-4,7,-2,6,-4,0,3
1471,-7,-3,8,-3,7,-4,0,4
1472,-7,-3,9,-3,7,-3,-1,4
1473,-7,-2,9,-3,8,-3,-2,5
1474,-7,-1,9,-2,9,-5,-3,6
1475,-6,0,9,-2,11,-6,-3,8
1476,-5,2,8,0,13,-7,-2,10
1477,-4,5,6,1,14,-9,-2,13
1478,-2,8,3,3,14,-9,-1,14
1479,-1,9,2,3,13,-6,-1,14
1480,0,9,2,4,9,-1,0,11
1481,0,8,2,3,6,2,1,8
1482,1,7,0,3,3,2,1,6
1483,1,5,-1,3,2,1,1,4
1484,0,4,-2,2,0,-1,1,3
1485,-1,2,-1,2,-1,-2,1,3
1486,-1,1,-1,2,-1,-4,1,2
1487,-2,0,1,2,0,-4,2,2
1488,-3,-1,2,2,-1,-3,2,2
1489,-4,0,3,2,-2,-1,2,2
1490,-4,2,2,3,-2,1,2,4
1491,-5,3,2,3,-3,3,1,6
1492,-5,3,5,3,-4,7,0,6
1493,-6,3,9,3,-5,10,-1,5
1494,-6,2,13,2,-4,11,-2,4
1495,-5,1,17,2,-3,10,-2,4
1496,-4,-1,20,2,-2,9,-2,3
1497,-3,-1,21,2,-1,9,-2,3
1498,-2,-2,19,1,0,8,-2,3
1499,-1,-1,15,0,0,8,-2,2
1500,-2,-1,12,-1,0,7,-3,1
1501,-3,-1,9,-2,-1,7,-4,0
1502,-4,-1,8,-3,-1,7,-5,-1
1503,-4,-2,9,-3,-1,9,-6,-2
1504,-4,-2,11,-3,-2,13,-6,-3
1505,-3,-2,13,-3,-2,18,-6,-3
1506,-3,0,14,-3,-2,19,-6,-1
1507,-3,2,13,-2,-1,19,-6,1
1508,-3,3,12,-2,0,16,-6,2
1509,-4,2,12,-2,0,14,-7,2
1510,-5,-1,12,-1,-1,14,-7,1
1511,-5,-4,12,-1,-2,14,-7,-1
1512,-5,-6,11,-1,-3,14,-7,-2
1513,-4,-6,9,-1,-4,13,-7,-1
1514,-3,-4,5,0,-4,12,-5,2
1515,-2,-2,1,0,-5,11,-4,4
1516,-2,0,-1,1,-6,11,-3,4
1517,-2,0,0,0,-8,12,-2,2
1518,-2,-2,2,-1,-10,12,-1,-1
1519,-3,-5,5,-2,-11,12,-1,-5
1520,-3,-7,7,-2,-10,11,-2,-7
1521,-3,-7,8,-2,-8,10,-2,-6
1522,-2,-5,9,-1,-5,8,-3,-3
1523,-2,-1,10,1,-1,6,-3,1
1524,-2,3,11,2,2,4,-3,6
1525,-2,7,11,2,4,3,-3,9
1526,-2,10,11,3,5,3,-3,11
1527,-2,12,10,2,5,6,-2,11
1528,-2,12,9,2,4,8,-2,10
1529,-3,11,8,1,4,8,-2,8
1530,-3,9,7,0,3,7,-2,6
1531,-3,6,5,-1,2,5,-2,3
1532,-3,3,4,-2,0,4,-2,2
1533,-3,1,3,-2,-3,4,-2,1
1534,-2,-1,2,-3,-5,4,-2,1
1535,-1,-4,4,-4,-7,6,-2,0
1536,-1,-6,7,-4,-9,9,-2,-1
1537,0,-7,7,-4,-10,13,-2,-2
1538,0,-6,4,-4,-10,14,-2,-1
1539,1,-3,-1,-3,-8,11,-1,2
1540,2,1,-7,-1,-4,5,0,6
1541,2,4,-11,0,1,-3,1,9
1542,3,6,-13,2,6,-9,2,12
1543,3,6,-11,3,10,-12,3,12
1544,4,6,-6,4,12,-10,3,11
1545,4,6,-1,5,12,-7,3,10
1546,4,7,2,6,12,-5,3,11
1547,5,8,2,8,13,-6,4,13
1548,4,8,2,9,14,-7,4,14
1549,4,7,2,9,13,-6,3,14
1550,4,5,2,8,10,-4,3,12
1551,3,2,2,7,7,-2,3,9
1552,2,-2,3,6,3,0,3,5
1553,1,-5,3,5,1,1,3,2
1554,1,-6,3,4,-1,1,3,-1
1555,1,-6,2,3,-3,1,3,-2
1556,1,-7,3,2,-5,2,3,-3
1557,1,-8,3,1,-8,4,3,-4
1558,1,-9,3,1,-11,5,2,-5
1559,0,-10,2,1,-12,4,2,-6
1560,-1,-11,0,1,-13,3,2,-7
1561,-1,-10,-3,2,-11,-1,3,-6
1562,0,-9,-5,3,-8,-7,4,-5
1563,0,-8,-6,4,-4,-12,5,-3
1564,1,-8,-5,4,0,-17,5,-2
1565,1,-8,-4,4,3,-19,5,0
1566,0,-6,-2,4,7,-18,4,2
1567,-1,-4,-1,3,10,-14,3,4
1568,-2,-3,1,2,11,-7,2,5
1569,-3,-2,2,2,11,-3,1,4
1570,-4,-2,1,1,11,-1,0,4
1571,-5,0,-1,0,10,-1,-1,4
1572,-5,1,-3,-1,9,-3,-2,4
1573,-5,3,-4,-2,9,-5,-3,4
1574,-5,4,-3,-3,8,-7,-4,3
1575,-6,4,-2,-3,7,-9,-4,2
1576,-6,3,0,-3,5,-8,-4,0
1577,-5,1,1,-3,2,-6,-3,-2
1578,-4,1,1,-2,-2,-2,-2,-3
1579,-3,1,-1,-1,-5,3,0,-4
1580,-1,1,-3,1,-8,7,2,-4
1581,1,1,-3,1,-10,9,3,-4
1582,1,-1,-2,2,-10,10,4,-4
1583,1,-2,0,2,-8,8,4,-4
1584,-1,-4,2,1,-6,6,4,-3
1585,-2,-5,4,1,-3,5,2,-2
1586,-2,-7,5,0,-1,5,1,-2
1587,-3,-9,5,-1,0,5,-1,-2
1588,-3,-9,4,-1,1,4,-2,-2
1589,-2,-10,2,-2,1,3,-3,-2
1590,-2,-10,0,-2,1,1,-3,-3
1591,-3,-11,-1,-3,0,0,-4,-4
1592,-3,-11,1,-4,-1,0,-5,-5
1593,-4,-12,4,-4,-2,1,-5,-6
1594,-4,-12,5,-4,-3,2,-5,-6
1595,-4,-11,6,-4,-3,1,-5,-4
1596,-4,-10,6,-3,-2,0,-5,-3
1597,-4,-10,5,-3,-1,0,-6,-2
1598,-3,-10,4,-3,-1,1,-6,-1
1599,-3,-11,2,-2,-2,1,-7,-2
1600,-3,-12,-1,-2,-4,1,-7,-4
1601,-4,-13,-3,-2,-6,-2,-7,-5
1602,-4,-13,-5,-1,-7,-5,-7,-6
1603,-4,-13,-6,-1,-7,-9,-6,-7
1604,-4,-12,-6,0,-6,-10,-4,-7
1605,-2,-11,-4,1,-5,-8,-3,-7
1606,-1,-10,0,1,-5,-4,-3,-7
1607,0,-9,2,2,-5,-1,-3,-6
1608,0,-6,2,2,-5,2,-3,-4
1609,-1,-3,1,1,-5,5,-4,-2
1610,-2,-1,0,0,-5,9,-5,-1
1611,-3,2,-1,-1,-4,11,-6,1
1612,-3,2,0,-2,-4,12,-6,2
1613,-3,1,2,-2,-3,11,-6,3
1614,-3,-1,4,-2,-3,9,-5,1
1615,-3,-3,5,-1,-4,8,-5,-1
1616,-3,-3,2,-1,-6,8,-4,-4
1617,-3,-3,-1,0,-9,7,-3,-5
1618,-3,-4,-4,1,-12,4,-3,-7
1619,-3,-5,-5,1,-14,3,-2,-8
1620,-3,-7,-6,1,-15,2,-2,-10
1621,-3,-8,-6,1,-16,3,-1,-11
1622,-3,-8,-6,1,-17,5,-1,-11
1623,-3,-6,-6,2,-15,5,0,-10
1624,-2,-4,-8,3,-13,4,1,-8
1625,-1,-1,-10,3,-10,1,2,-5
1626,1,2,-12,4,-6,-3,3,-1
1627,2,5,-14,3,-3,-5,4,3
1628,3,8,-16,3,-1,-4,5,6
1629,5,9,-16,3,-2,-2,7,7
1630,5,10,-15,3,-3,1,8,7
1631,5,10,-13,2,-4,4,8,6
1632,5,9,-11,1,-6,7,7,3
1633,4,7,-8,0,-9,11,6,0
1634,3,4,-5,-1,-11,14,4,-3
1635,1,1,-2,-2,-11,13,2,-6
1636,-1,-2,-2,-2,-9,10,0,-6
1637,-2,-3,-2,-2,-7,5,-1,-6
1638,-4,-3,-3,-2,-4,0,-2,-4
1639,-5,-1,-5,-1,-1,-3,-2,0
1640,-6,3,-6,-1,1,-3,-2,4
1641,-6,5,-5,0,2,-1,-2,6
1642,-5,6,-4,0,1,1,-1,8
1643,-4,7,-2,0,1,2,-1,8
1644,-3,8,-3,-1,1,2,-1,10
1645,-2,11,-4,-1,2,2,0,12
1646,-1,14,-5,-1,3,2,1,14
1647,0,16,-4,-1,3,2,1,16
1648,1,16,-3,-2,4,3,1,16
1649,2,16,-2,-2,4,6,1,16
1650,3,15,-1,-3,3,9,1,13
1651,3,14,0,-4,1,12,0,10
1652,3,12,0,-4,-2,14,0,6
1653,2,10,0,-5,-5,15,0,0
1654,1,6,1,-6,-9,16,-1,-6
1655,0,2,3,-7,-13,17,-2,-12
1656,-1,-2,4,-8,-16,18,-3,-16
1657,-2,-4,5,-7,-17,19,-4,-18
1658,-2,-5,6,-6,-16,19,-4,-17
1659,-2,-6,8,-5,-14,17,-4,-16
1660,-3,-8,11,-3,-10,12,-4,-14
1661,-3,-9,13,-2,-5,5,-4,-12
1662,-3,-10,14,-1,0,0,-4,-8
1663,-3,-8,13,0,4,-4,-4,-4
1664,-2,-5,9,1,7,-5,-4,1
1665,-2,-1,6,1,9,-3,-3,6
1666,-1,2,3,1,9,-2,-2,10
1667,0,4,0,-1,9,-2,-1,13
1668,1,6,-3,-2,9,-4,-1,15
1669,2,6,-4,-3,9,-6,-1,14
1670,2,7,-3,-5,8,-5,-1,12
1671,2,7,-2,-6,6,-2,-1,9
1672,2,6,-1,-7,3,2,-2,5
1673,2,3,1,-8,-2,7,-2,-1
1674,1,-1,2,-8,-7,10,-3,-6
1675,-1,-4,1,-9,-11,12,-5,-10
1676,-3,-6,-1,-10,-13,12,-6,-13
1677,-5,-8,-1,-10,-14,13,-8,-16
1678,-6,-8,0,-11,-13,12,-8,-16
1679,-6,-8,1,-11,-11,10,-8,-14
1680,-5,-7,2,-10,-8,9,-7,-12
1681,-4,-7,3,-10,-6,8,-7,-10
1682,-3,-6,4,-9,-4,7,-6,-9
1683,-2,-6,5,-9,-2,7,-5,-7
1684,-2,-6,7,-9,-1,7,-5,-6
1685,-2,-6,9,-8,0,7,-6,-5
1686,-3,-5,10,-7,0,7,-6,-4
1687,-4,-5,11,-7,0,6,-7,-3
1688,-5,-4,11,-7,0,5,-8,-2
1689,-5,-4,12,-7,-1,3,-9,-3
1690,-5,-5,13,-7,-1,1,-9,-3
1691,-4,-5,13,-6,-2,-1,-8,-4
1692,-3,-4,13,-5,-4,0,-6,-5
1693,-1,-4,13,-4,-5,2,-4,-5
1694,2,-3,12,-4,-6,4,-2,-6
1695,5,-3,11,-3,-7,6,0,-6
1696,7,-1,9,-2,-8,7,2,-5
1697,8,1,7,-1,-8,5,4,-4
1698,8,3,5,0,-7,4,6,-3
1699,8,5,4,1,-7,3,8,-2
1700,8,6,3,2,-5,2,8,-1
1701,7,6,3,3,-3,1,8,0
1702,7,6,1,4,-2,1,8,0
1703,7,5,1,4,-2,3,8,1
1704,7,6,1,3,-3,8,7,2
1705,7,5,3,2,-4,12,7,2
1706,7,4,5,1,-4,13,7,1
1707,7,3,7,1,-2,11,6,1
1708,7,2,7,0,1,7,5,1
1709,6,1,5,-1,3,3,4,1
1710,5,1,2,-1,4,0,3,1
1711,4,1,0,-2,3,-1,2,0
1712,3,-1,-1,-2,1,1,1,-2
1713,2,-3,0,-2,-1,2,0,-5
1714,1,-5,-1,-2,-1,2,-1,-6
1715,2,-6,-3,-2,-1,0,0,-8
1716,3,-6,-5,-1,-2,-1,1,-8
1717,3,-6,-7,0,-4,0,2,-10
1718,3,-6,-8,1,-6,0,3,-12
1719,3,-7,-7,2,-9,1,4,-13
1720,2,-7,-5,3,-10,3,5,-14
1721,2,-5,-4,4,-9,4,5,-13
1722,1,-2,-4,4,-7,5,5,-10
1723,1,2,-4,4,-5,6,5,-6
1724,1,5,-5,4,-3,7,4,-3
1725,1,8,-6,4,-3,8,3,1
1726,1,10,-7,3,-1,6,3,4
1727,2,10,-7,2,1,5,3,5
1728,2,9,-4,2,3,4,4,5
1729,3,8,-1,2,5,4,4,6
1730,4,7,1,2,7,4,4,6
1731,4,7,1,2,10,5,4,8
1732,5,8,0,3,11,5,3,10
1733,5,8,-2,3,13,3,2,11
1734,5,8,-3,3,15,0,1,12
1735,6,8,-3,3,16,-3,0,12
1736,6,7,-2,2,16,-3,0,12
1737,7,7,-2,1,14,-1,1,11
1738,7,7,-2,0,12,1,2,10
1739,7,7,-3,-1,10,3,2,8
1740,7,6,-3,-2,8,5,2,7
1741,6,4,-3,-2,6,6,1,4
1742,5,2,-3,-3,5,6,0,1
1743,4,-1,-1,-3,4,6,-1,-3
1744,3,-3,1,-3,3,6,-2,-5
1745,3,-3,3,-2,2,7,-3,-5
1746,3,-3,5,-2,2,6,-3,-4
1747,4,-2,5,-1,3,4,-2,-2
1748,4,0,4,0,4,3,-2,1
1749,5,1,2,0,5,2,-2,3
1750,5,1,1,0,5,3,-3,4
1751,5,-1,1,-1,4,4,-4,4
1752,4,-2,2,-1,3,7,-6,2
1753,5,-4,3,0,1,9,-7,1
1754,5,-5,3,1,0,9,-6,-1
1755,6,-5,2,2,0,7,-5,-3
1756,6,-3,0,3,-1,5,-3,-3
1757,7,-1,-3,4,-1,3,-2,-3
1758,7,1,-6,4,-2,3,-2,-2
1759,8,3,-9,3,-2,2,-2,0
1760,8,5,-11,3,-2,1,-2,1
1761,8,5,-10,2,-2,0,-2,2
1762,8,4,-8,2,-1,0,-2,2
1763,8,3,-3,2,-1,1,-1,1
1764,7,1,1,2,0,3,-1,1
1765,6,0,4,2,0,4,-1,1
1766,5,1,5,1,0,6,-1,1
1767,5,2,5,1,1,9,0,2
1768,5,4,4,2,2,13,1,2
1769,6,6,5,3,3,14,3,3
1770,7,8,4,4,5,13,4,6
1771,7,9,2,5,7,9,5,9
1772,8,9,-2,5,9,3,6,12
1773,8,9,-5,6,10,-2,6,13
1774,8,8,-7,5,9,-3,7,12
1775,8,8,-8,5,7,0,7,11
1776,7,7,-7,4,5,5,6,10
1777,6,7,-4,3,4,7,6,9
1778,5,7,-3,2,4,7,6,9
1779,4,8,-3,1,4,6,5,9
1780,4,8,-3,1,5,6,4,8
1781,3,7,-3,0,5,5,4,6
1782,3,5,-4,-1,4,4,3,5
1783,2,4,-4,-1,4,3,3,4
1784,2,3,-3,-1,3,3,2,3
1785,2,2,-3,-2,2,5,1,1
1786,3,2,-3,-2,0,8,1,0
1787,5,3,-3,-2,-1,11,1,-1
1788,6,4,-4,-2,-3,14,1,-1
1789,6,5,-5,-1,-4,16,1,-1
1790,5,7,-6,-1,-3,12,1,0
1791,4,8,-7,0,-1,8,1,1
1792,2,9,-7,0,0,6,0,1
1793,2,8,-7,1,1,5,0,1
1794,2,7,-6,1,2,4,0,1
1795,2,6,-6,1,2,4,1,1
1796,3,4,-8,1,2,3,1,1
1797,4,3,-10,1,3,2,1,1
1798,5,2,-12,2,4,-2,1,2
1799,5,2,-13,2,6,-5,1,3
1800,6,2,-11,2,7,-5,1,3
1801,5,1,-7,2,7,-3,1,3
1802,5,1,-4,3,7,-2,1,2
1803,4,1,-2,3,7,-3,1,3
1804,4,1,-1,3,7,-3,1,3
1805,3,-2,-1,3,7,-2,0,2
1806,3,-5,-1,3,6,0,-1,1
1807,3,-6,-3,3,6,0,-1,1
1808,4,-5,-5,3,5,-1,-2,1
1809,4,-3,-8,3,5,-2,-2,1
1810,3,0,-10,2,5,-2,-1,1
1811,3,3,-11,2,4,-1,0,1
1812,3,3,-10,2,4,-2,2,1
1813,3,2,-7,2,4,-3,2,1
1814,4,1,-4,2,4,-4,2,1
1815,4,2,-3,1,4,-5,2,2
1816,5,3,-3,1,5,-7,2,5
1817,6,4,-3,1,7,-7,1,8
1818,7,4,-3,1,8,-5,0,10
1819,7,4,-2,1,9,-3,0,11
1820,7,3,0,1,9,-1,-1,12
1821,7,3,1,1,10,-1,-1,11
1822,7,3,1,0,10,-2,-1,12
1823,6,4,1,-1,10,-2,-2,12
1824,6,6,1,-2,10,-2,-2,13
1825,5,8,0,-2,10,-3,-3,13
1826,5,8,0,-2,10,-5,-3,12
1827,4,7,0,-2,9,-4,-3,10
1828,4,5,1,-1,6,-3,-3,6
1829,4,3,1,-1,4,-1,-3,4
1830,4,2,-2,-2,3,-1,-3,4
1831,4,3,-5,-2,2,0,-2,4
1832,5,4,-7,-2,1,2,-2,4
1833,5,4,-7,-3,0,2,-2,4
1834,6,3,-6,-3,0,1,-3,2
1835,6,1,-5,-3,-1,0,-2,-1
1836,6,-2,-4,-3,-1,0,-2,-3
1837,6,-3,-4,-3,-3,1,0,-4
1838,7,-3,-4,-2,-3,2,1,-3
1839,7,-2,-5,-1,-3,2,2,-1
1840,8,-1,-5,0,-3,1,2,2
1841,8,1,-4,0,-2,0,1,5
1842,8,2,-2,1,-2,1,1,6
1843,8,3,-1,1,-1,1,1,7
1844,7,4,-3,0,0,1,1,8
1845,6,4,-4,-1,1,0,1,8
1846,5,3,-5,-1,2,0,2,7
1847,4,2,-5,-1,3,0,2,7
1848,4,2,-5,-1,3,1,2,7
1849,3,2,-6,-1,3,3,2,6
1850,4,2,-6,0,3,3,3,5
1851,5,2,-6,0,3,2,4,3
1852,6,2,-7,1,3,-1,5,2
1853,7,3,-8,1,3,-3,6,1
1854,7,4,-10,1,4,-4,6,1
1855,8,6,-10,2,5,-3,6,2
1856,8,8,-10,3,5,-1,6,3
1857,7,9,-10,3,6,-1,6,5
1858,7,10,-10,3,7,-2,6,6
1859,6,8,-9,3,7,-4,6,5
1860,6,6,-7,2,7,-5,6,4
1861,5,4,-6,1,6,-5,5,2
1862,5,2,-5,-1,6,-5,5,0
1863,5,-1,-3,-2,5,-4,4,-2
1864,4,-4,-2,-4,3,-1,4,-4
1865,3,-6,0,-5,1,1,3,-6
1866,3,-7,1,-6,-1,1,2,-6
1867,2,-8,1,-6,-1,-1,1,-6
1868,2,-10,1,-6,-1,-3,-1,-7
1869,1,-12,2,-6,-2,-3,-2,-8
1870,1,-13,3,-5,-4,-2,-2,-9
1871,2,-12,4,-5,-6,1,-1,-10
1872,2,-10,2,-4,-7,2,0,-10
1873,2,-8,0,-3,-7,0,2,-9
1874,2,-5,-3,-3,-6,-1,3,-7
1875,3,-2,-5,-3,-5,-2,4,-6
1876,3,-2,-6,-3,-4,-2,4,-6
1877,3,-2,-5,-4,-4,-2,4,-7
1878,3,-3,-4,-4,-4,0,4,-8
1879,3,-3,-2,-4,-4,1,3,-8
1880,2,-3,-2,-5,-5,1,2,-8
1881,0,-3,-2,-5,-4,0,1,-7
1882,-1,-2,-2,-6,-4,0,-1,-7
1883,-2,-2,-3,-7,-5,1,-2,-6
1884,-3,-2,-2,-7,-6,3,-2,-7
1885,-4,-3,-2,-8,-7,4,-3,-7
1886,-4,-3,-3,-8,-7,3,-2,-8
1887,-2,-3,-5,-7,-6,1,-1,-7
1888,0,-2,-7,-6,-5,-2,1,-5
1889,3,1,-10,-5,-2,-5,3,-2
1890,5,5,-12,-3,0,-7,4,2
1891,7,8,-12,-2,2,-7,6,4
1892,7,9,-12,-2,2,-7,7,5
1893,7,9,-10,-2,2,-7,7,3
1894,6,7,-8,-3,1,-5,6,0
1895,4,5,-5,-4,-2,0,4,-3
1896,1,3,-2,-4,-6,6,3,-6
1897,-1,1,2,-5,-8,9,1,-8
1898,-3,-2,4,-6,-9,8,-1,-9
1899,-4,-5,6,-7,-9,5,-2,-10
1900,-4,-9,6,-7,-9,1,-2,-11
1901,-3,-12,7,-7,-8,-2,-2,-11
1902,-3,-14,8,-7,-9,0,-2,-12
1903,-3,-15,10,-7,-10,4,-3,-12
1904,-3,-14,10,-6,-10,5,-3,-10
1905,-3,-11,6,-5,-9,4,-2,-6
1906,-3,-7,1,-4,-7,1,-2,-2
1907,-3,-3,-5,-3,-6,-1,-1,1
1908,-2,0,-10,-2,-6,-3,0,4
1909,-2,1,-12,-2,-6,-4,0,5
1910,-2,0,-11,-2,-7,-4,0,4
1911,-2,-3,-8,-2,-7,-3,0,2
1912,-3,-6,-4,-3,-7,-3,-1,1
1913,-3,-7,0,-4,-5,-2,-1,-1
1914,-4,-6,3,-5,-3,-2,-2,-1
1915,-4,-4,3,-5,-1,-2,-2,0
1916,-5,-2,2,-5,2,-3,-2,1
1917,-5,0,-1,-5,3,-4,-1,1
1918,-4,1,-4,-5,3,-4,0,2
1919,-4,2,-6,-4,3,-6,1,2
1920,-4,1,-7,-4,2,-6,2,2
1921,-3,1,-6,-3,1,-5,2,1
1922,-2,0,-6,-3,0,-5,2,1
1923,-2,0,-5,-3,-1,-4,2,0
1924,-2,-1,-4,-3,-2,-1,2,-1
1925,-3,-3,-2,-3,-5,3,2,-2
1926,-3,-4,0,-3,-7,6,2,-2
1927,-3,-4,1,-2,-8,8,1,-1
1928,-3,-5,1,-2,-9,9,1,1
1929,-3,-4,1,-2,-8,11,0,3
1930,-2,-3,0,-2,-5,11,-1,5
1931,-2,-1,0,-2,-1,8,-1,6
1932,-2,1,-1,-1,4,4,0,7
1933,-2,3,-2,-1,7,-1,1,8
1934,-3,5,-4,0,9,-5,1,9
1935,-4,6,-4,1,10,-8,1,9
1936,-4,6,-5,1,10,-9,1,8
1937,-4,5,-5,2,9,-8,1,7
1938,-4,4,-5,2,8,-7,1,6
1939,-3,3,-5,2,7,-6,2,4
1940,-2,2,-5,2,5,-4,2,1
1941,-2,2,-5,1,3,-2,2,0
1942,-3,2,-6,0,2,-1,2,-1
1943,-4,2,-6,-1,0,-3,1,0
1944,-3,2,-7,-2,-1,-3,1,1
1945,-2,2,-6,-3,-2,-2,1,2
1946,0,3,-5,-3,-2,1,2,3
1947,1,3,-5,-3,-2,5,3,4
1948,2,4,-5,-4,-2,8,3,4
1949,2,4,-5,-4,-2,10,3,5
1950,1,5,-5,-5,-1,10,3,6
1951,0,6,-5,-6,0,8,2,7
1952,-1,6,-4,-6,2,6,1,6
1953,-2,5,-1,-6,3,4,0,5
1954,-2,4,1,-5,4,4,-1,4
1955,-2,5,2,-5,4,4,-1,3
1956,-2,6,2,-5,5,6,-1,3
1957,-1,8,0,-5,5,6,-1,4
1958,-1,9,-1,-5,5,6,0,5
1959,-1,10,-2,-4,5,4,0,5
1960,-1,9,-2,-4,4,3,0,5
1961,-3,6,-1,-4,3,4,-1,4
1962,-5,4,1,-5,1,7,-2,2
1963,-6,2,3,-5,-2,10,-3,1
1964,-8,0,4,-5,-2,10,-4,1
1965,-8,-1,4,-5,-2,8,-4,1
1966,-9,-2,4,-5,-2,6,-4,2
1967,-9,-4,4,-4,-2,4,-4,3
1968,-8,-5,4,-4,-2,3,-4,3
1969,-8,-6,4,-4,-3,3,-4,3
1970,-8,-7,3,-3,-4,3,-3,2
1971,-7,-6,3,-3,-5,3,-3,2
1972,-5,-5,2,-2,-6,3,-3,2
1973,-4,-4,2,-2,-6,4,-3,2
1974,-4,-4,3,-2,-6,5,-3,1
1975,-4,-5,6,-3,-6,8,-3,0
1976,-5,-7,9,-4,-5,10,-3,-2
1977,-5,-8,12,-5,-5,10,-2,-5
1978,-6,-9,14,-5,-4,10,-1,-7
1979,-7,-9,15,-6,-4,10,-1,-8
1980,-7,-9,14,-7,-5,8,-1,-9
1981,-7,-8,11,-7,-6,5,-1,-9
1982,-8,-9,8,-7,-6,2,-1,-10
1983,-8,-9,6,-6,-6,1,0,-9
1984,-8,-7,5,-5,-6,0,0,-8
1985,-7,-5,3,-4,-4,-2,1,-4
1986,-6,-2,2,-2,-1,-4,2,0
1987,-5,1,1,-1,1,-5,3,4
1988,-4,3,-2,0,3,-5,3,8
1989,-3,4,-3,-1,5,-5,2,11
1990,-2,5,-2,-1,7,-4,1,13
1991,-1,6,-1,-1,9,-3,1,16
1992,1,7,-2,-1,10,-3,2,18
1993,3,9,-3,-1,10,-3,3,19
1994,4,10,-4,-1,9,-2,4,19
1995,5,9,-5,-1,7,1,5,18
1996,6,8,-4,-1,4,4,5,15
1997,5,5,-1,-2,1,8,4,11
1998,5,2,2,-4,-2,10,3,7
1999,4,0,4,-5,-4,10,1,4
2000,4,-1,4,-6,-4,7,0,2
2001,3,-1,4,-7,-3,4,-1,1
2002,3,0,4,-7,-1,1,-2,1
2003,3,2,4,-6,2,-2,-2,2
2004,4,5,5,-6,5,-4,-2,4
2005,4,8,5,-5,7,-4,-1,6
2006,5,11,6,-4,9,-2,1,9
2007,6,13,6,-4,11,0,2,11
2008,6,14,7,-3,11,3,3,13
2009,6,14,9,-3,11,6,3,14
2010,6,15,9,-3,10,9,3,15
2011,5,16,7,-3,10,9,2,17
2012,4,18,2,-4,8,8,1,18
2013,3,18,-2,-4,6,7,-1,18
2014,3,18,-5,-5,4,5,-1,17
2015,3,17,-7,-5,2,5,-2,14
2016,4,14,-6,-6,-1,7,-2,12
2017,3,11,-5,-7,-2,9,-2,10
2018,3,10,-4,-8,-1,7,-2,10
2019,2,10,-4,-8,2,4,-3,11
2020,1,10,-3,-9,4,1,-3,12
2021,1,10,-1,-9,5,0,-4,13
2022,0,10,3,-9,5,1,-4,13
2023,-1,9,6,-8,4,3,-4,12
2024,-1,9,8,-8,4,7,-4,11
2025,-1,10,10,-8,3,8,-4,10
2026,-1,11,10,-8,4,7,-4,10
2027,0,12,9,-8,6,5,-3,10
2028,1,13,7,-7,7,4,-3,11
2029,1,14,5,-7,8,3,-2,11
2030,2,13,4,-5,8,4,-2,11
2031,2,12,3,-4,7,4,-1,10
2032,3,12,3,-2,5,4,0,10
2033,4,11,4,0,2,4,1,9
2034,4,9,5,2,1,3,1,8
2035,3,8,5,4,1,-1,1,8
2036,2,7,4,5,1,-5,1,8
2037,0,5,3,5,1,-8,1,8
2038,-1,2,2,5,0,-8,1,6
2039,-2,-1,3,5,-3,-5,1,5
2040,-3,-2,3,4,-5,-2,2,4
2041,-3,-4,3,4,-6,-1,2,3
2042,-3,-5,5,4,-7,-1,3,2
2043,-2,-6,6,4,-7,-1,2,1
2044,-1,-6,7,3,-6,0,1,2
2045,-1,-4,8,2,-6,2,0,3
2046,-1,-2,9,2,-5,5,-1,5
2047,-1,1,10,1,-4,7,-2,6
2048,0,5,9,1,-2,7,-2,9
2049,0,8,8,1,2,6,-1,11
2050,1,10,8,2,5,5,0,12
2051,2,11,10,2,6,6,2,12
2052,3,11,12,3,7,7,4,11
2053,3,12,15,3,8,7,5,11
2054,3,11,17,3,10,7,5,12
2055,3,11,19,3,11,7,4,13
2056,3,10,19,3,11,7,4,14
2057,2,8,19,3,11,8,3,14
2058,2,6,18,3,9,9,3,14
2059,2,6,16,3,6,9,3,14
2060,1,5,13,2,4,9,3,14
2061,1,4,11,1,3,7,3,13
2062,1,3,10,0,2,4,3,13
2063,0,1,10,-1,2,1,2,12
2064,-1,-3,12,-2,1,0,0,9
2065,-2,-8,16,-3,1,1,-1,5
2066,-4,-10,18,-4,0,2,-2,3
2067,-5,-9,16,-4,-1,4,-3,3
2068,-6,-5,11,-4,-2,6,-3,4
2069,-6,-1,7,-4,-3,8,-2,6
2070,-6,3,4,-4,-3,8,-1,7
2071,-4,6,2,-4,-3,6,-1,8
2072,-3,9,1,-4,-3,4,0,9
2073,-3,11,1,-3,-2,3,1,9
2074,-2,11,0,-3,-1,2,1,9
2075,-2,10,-1,-3,-1,2,1,8
2076,-1,8,-1,-3,-1,4,0,7
2077,-1,5,1,-4,-1,5,0,7
2078,-1,2,4,-4,2,6,-1,7
2079,-1,-1,7,-4,5,5,-1,8
2080,-2,-3,8,-4,8,3,-1,9
2081,-2,-3,8,-4,11,1,0,11
2082,-1,-2,7,-3,12,0,1,13
2083,-1,-1,6,-3,12,1,1,14
2084,1,1,6,-3,10,3,2,15
2085,2,2,5,-2,7,5,2,16
2086,2,2,5,-2,5,7,2,16
2087,3,2,6,-2,4,6,2,16
2088,3,1,7,-3,5,4,1,16
2089,3,1,8,-4,5,3,1,16
2090,3,2,9,-4,5,4,1,17
2091,3,4,9,-5,5,6,0,18
2092,3,7,9,-4,4,8,0,18
2093,3,9,8,-3,5,9,1,19
2094,4,11,6,-3,5,10,2,19
2095,5,14,4,-2,5,11,3,18
2096,6,16,1,-1,5,11,4,17
2097,7,16,-2,-1,4,10,5,16
2098,8,14,-3,-1,4,9,5,14
2099,9,12,-2,-1,4,8,5,13
2100,9,9,0,-1,4,7,5,13
2101,9,8,1,-1,4,7,4,14
2102,9,7,1,-2,3,8,4,14
2103,8,5,1,-2,-1,11,3,13
2104,6,2,2,-3,-3,12,2,11
2105,5,-1,2,-3,-5,11,1,9
2106,4,-4,4,-3,-5,10,-1,8
2107,3,-5,6,-3,-5,9,-2,7
2108,2,-6,9,-3,-6,9,-3,8
2109,1,-6,11,-3,-7,10,-4,8
2110,1,-7,11,-4,-9,11,-5,7
2111,1,-9,12,-4,-9,10,-5,5
2112,2,-11,11,-5,-9,8,-5,4
2113,3,-12,10,-5,-9,6,-4,4
2114,4,-12,8,-5,-9,4,-4,4
2115,5,-11,7,-5,-9,4,-4,4
2116,5,-11,6,-5,-10,5,-4,4
2117,5,-11,5,-5,-12,7,-4,4
2118,5,-11,5,-5,-13,10,-4,3
2119,4,-11,5,-5,-14,13,-3,2
2120,5,-11,5,-4,-15,14,-3,2
2121,5,-10,5,-4,-14,13,-2,3
2122,5,-10,6,-3,-13,11,-2,3
2123,5,-11,9,-3,-11,9,-2,4
2124,6,-11,12,-3,-9,8,-2,5
2125,6,-12,14,-3,-7,8,-2,7
2126,6,-13,14,-3,-6,8,-2,8
2127,5,-14,14,-3,-5,9,-2,8
2128,5,-14,14,-3,-5,9,-2,8
2129,4,-13,14,-3,-5,10,-2,10
2130,4,-11,15,-2,-4,12,-2,11
2131,4,-9,16,-1,-3,12,-2,12
2132,3,-7,17,1,-2,11,-1,13
2133,3,-7,17,2,0,6,0,14
2134,2,-8,16,4,3,0,1,15
2135,2,-10,16,4,5,-5,2,15
2136,2,-11,17,5,6,-6,2,14
2137,2,-11,18,4,5,-4,2,14
2138,3,-11,18,4,3,-2,2,12
2139,4,-10,20,3,1,1,2,10
2140,4,-11,22,3,-1,2,3,9
2141,5,-11,24,4,-1,1,3,8
2142,6,-11,23,4,1,-2,4,8
2143,7,-10,21,6,2,-5,4,10
2144,8,-9,18,6,4,-7,4,12
2145,9,-7,15,7,4,-7,4,13
2146,10,-6,13,7,3,-6,4,14
2147,11,-5,10,7,1,-5,4,15
2148,11,-3,8,7,0,-3,4,16
2149,10,0,6,7,-2,-2,4,17
2150,9,2,6,7,-3,0,4,18
2151,7,2,6,7,-2,1,4,18
2152,6,1,8,7,-1,0,4,17
2153,4,0,12,6,0,0,3,16
2154,2,-2,18,6,1,2,2,13
2155,0,-5,23,4,2,4,1,12
2156,-2,-6,27,4,3,4,-1,11
2157,-2,-5,27,3,5,3,-1,12
2158,-2,-2,25,4,6,1,-1,15
2159,-1,1,21,4,7,-2,0,17
2160,0,3,18,6,6,-3,1,19
2161,0,3,17,6,4,-2,2,19
2162,1,0,19,6,2,1,2,17
2163,0,-3,23,6,-1,4,2,15
2164,0,-6,25,6,-2,6,2,13
2165,1,-6,22,5,-3,4,2,13
2166,1,-4,17,4,-2,1,3,14
2167,2,-2,12,3,0,-3,3,16
2168,2,0,8,2,1,-6,3,17
2169,2,0,7,2,1,-8,3,17
2170,2,-2,7,2,1,-7,2,15
2171,2,-5,11,2,-1,-3,2,13
2172,1,-7,15,2,-3,1,2,11
2173,1,-8,18,3,-4,4,2,10
2174,1,-7,20,3,-4,5,2,11
2175,2,-5,22,3,-2,4,3,12
2176,2,-4,25,3,-1,5,3,14
2177,2,-2,26,3,1,7,3,15
2178,2,-1,27,2,2,8,3,17
2179,2,1,28,2,4,8,2,19
2180,2,1,28,3,7,6,2,21
2181,3,2,30,3,10,4,3,25
2182,4,3,31,4,12,2,3,27
2183,4,2,33,4,14,3,2,28
2184,4,-1,34,4,13,5,2,27
2185,3,-5,35,4,11,7,0,24
2186,2,-9,35,3,8,7,-2,21
2187,1,-12,34,1,6,6,-3,17
2188,2,-13,30,0,4,4,-4,16
2189,3,-13,24,-1,3,2,-4,15
2190,6,-12,19,-2,1,3,-3,16
2191,8,-10,16,-2,-1,5,-3,16
2192,9,-10,15,-2,-3,7,-2,14
2193,9,-12,18,-2,-4,8,-3,13
2194,9,-14,23,-2,-5,8,-4,11
2195,8,-15,26,-2,-7,9,-5,9
2196,7,-15,27,-2,-8,9,-5,9
2197,8,-13,26,-1,-7,7,-5,11
2198,8,-11,24,0,-6,6,-3,14
2199,9,-9,24,1,-4,6,-2,18
2200,10,-8,26,2,-2,7,-1,22
2201,11,-7,28,2,-1,8,0,26
2202,11,-6,31,3,1,9,0,28
2203,11,-6,33,3,1,9,0,30
2204,11,-7,35,2,1,7,0,30
2205,10,-9,37,2,2,6,-1,28
2206,8,-12,38,0,1,7,-2,26
2207,7,-13,40,-1,1,11,-4,24
2208,6,-15,43,-3,-1,16,-5,21
2209,5,-17,46,-3,-1,20,-6,19
2210,5,-17,45,-3,0,19,-6,18
2211,5,-14,40,-2,3,14,-5,19
2212,6,-11,33,-1,6,8,-4,21
2213,7,-9,28,0,8,2,-2,22
2214,8,-8,24,1,8,-2,0,21
2215,8,-9,25,2,7,-2,1,20
2216,8,-12,30,1,5,-1,2,17
2217,8,-14,35,1,4,3,1,15
2218,7,-15,39,0,4,6,1,14
2219,7,-14,39,-1,4,9,-1,16
2220,7,-12,40,-1,5,13,-2,18
2221,7,-10,41,-2,5,16,-3,19
2222,6,-9,40,-1,6,16,-3,20
2223,6,-9,38,-1,7,12,-3,22
2224,6,-8,34,1,8,7,-2,23
2225,6,-9,32,3,9,1,-1,23
2226,7,-10,33,5,10,-3,1,24
2227,8,-10,35,6,9,-3,1,23
2228,8,-8,38,7,8,1,1,22
2229,8,-7,40,7,5,5,0,21
2230,8,-5,41,5,3,10,-1,19
2231,8,-4,41,4,1,14,-2,17
2232,8,-4,40,3,0,15,-2,16
2233,8,-4,39,3,1,12,-1,16
2234,8,-3,37,3,3,9,0,18
2235,9,-1,34,2,5,6,0,20
2236,10,1,32,2,6,5,1,22
2237,10,1,31,2,5,7,1,22
2238,11,2,31,1,4,10,1,22
2239,13,2,32,1,3,12,2,22
2240,15,2,32,2,5,11,4,23
2241,17,3,30,4,8,8,7,26
2242,19,5,29,6,11,7,10,28
2243,21,7,29,9,14,7,13,31
2244,22,10,31,12,15,8,15,33
2245,23,13,32,14,17,8,16,36
2246,23,17,32,14,19,8,17,39
2247,23,20,31,14,20,7,16,42
2248,22,22,31,13,21,7,14,43
2249,21,24,31,11,21,9,13,44
2250,19,24,33,9,20,14,11,43
2251,18,23,36,7,19,20,10,42
2252,18,23,39,6,20,22,9,41
2253,18,23,40,6,23,20,9,41
2254,19,23,38,7,24,15,9,41
2255,20,23,33,7,25,9,9,41
2256,20,22,28,8,24,4,9,40
2257,20,20,25,8,21,3,9,37
2258,21,17,26,8,17,5,9,35
2259,21,14,28,8,14,10,9,32
2260,21,11,31,8,13,13,9,31
2261,21,10,33,7,13,16,8,30
2262,20,9,32,5,13,17,8,29
2263,18,10,29,3,13,17,7,29
2264,16,11,26,1,13,18,6,29
2265,14,12,24,0,11,19,5,28
2266,13,13,24,-2,10,21,5,28
2267,13,13,26,-2,10,23,4,28
2268,14,14,28,-2,10,22,3,30
2269,15,15,31,-2,12,20,3,33
2270,16,18,30,-2,13,17,2,37
2271,16,20,27,-1,15,12,1,40
2272,16,22,23,0,16,8,-1,42
2273,15,22,21,0,16,7,-2,41
2274,14,19,22,-1,15,8,-3,37
2275,12,16,25,-1,14,12,-4,33
2276,12,13,28,-1,13,15,-4,30
2277,12,12,30,0,13,17,-4,29
2278,12,13,30,1,14,18,-3,30
2279,12,14,31,0,15,17,-3,31
2280,12,15,31,-1,17,17,-3,32
2281,12,14,32,-2,19,16,-4,32
2282,10,13,33,-3,20,15,-5,31
2283,8,11,33,-4,21,15,-7,29
2284,5,8,34,-6,21,16,-9,26
2285,3,7,36,-7,20,18,-10,23
2286,1,5,37,-7,19,17,-11,20
2287,-1,4,36,-8,17,14,-11,18
2288,-1,3,32,-8,15,10,-10,18
2289,0,4,23,-7,13,4,-9,19
2290,1,5,12,-5,11,-2,-8,20
2291,2,6,4,-4,8,-4,-6,19
2292,4,6,-1,-2,4,-3,-5,18
2293,6,7,-2,-1,0,1,-4,16
2294,7,7,0,0,-3,3,-3,16
2295,8,7,2,0,-4,3,-2,16
2296,8,8,4,1,-5,3,0,17
2297,9,9,5,1,-4,3,2,17
2298,9,10,5,0,-2,3,2,18
2299,9,11,6,-1,1,5,1,18
2300,8,11,8,-3,3,7,-1,19
2301,7,11,11,-5,5,12,-3,19
2302,6,11,14,-7,6,18,-5,20
2303,6,9,18,-9,5,25,-7,19
2304,5,7,20,-10,3,30,-8,17
2305,6,5,21,-11,1,32,-8,14
2306,6,4,20,-11,0,30,-8,12
2307,7,4,18,-11,-1,24,-7,11
2308,7,3,15,-10,-2,14,-7,9
2309,8,-1,14,-9,-5,6,-7,5
2310,9,-4,12,-7,-8,3,-6,1
2311,11,-5,8,-5,-10,4,-5,0
2312,12,-1,2,-2,-10,5,-3,4
2313,14,6,-6,2,-8,6,0,10
2314,14,14,-13,6,-5,4,2,18
2315,13,21,-17,8,-2,0,3,24
2316,11,23,-17,9,-4,-4,2,26
2317,9,19,-12,7,-7,-6,-1,22
2318,7,15,-7,6,-11,-5,-4,18
2319,6,12,-3,4,-12,-2,-6,17
2320,5,12,-2,3,-10,2,-8,18
2321,4,14,1,1,-6,4,-10,21
2322,4,15,3,0,-1,5,-12,24
2323,2,16,6,-1,3,7,-15,27
2324,1,19,8,-1,7,9,-18,30
2325,1,21,9,-1,9,12,-21,33
2326,2,23,8,0,11,15,-22,36
2327,3,25,7,2,11,18,-23,38
2328,5,25,5,4,11,21,-23,38
2329,7,24,3,5,8,22,-22,37
2330,8,22,0,5,3,21,-22,35
2331,9,20,-1,5,-3,18,-23,32
2332,7,19,-1,5,-8,17,-25,29
2333,5,18,-1,5,-11,18,-27,27
2334,2,21,-2,5,-12,22,-30,26
2335,0,26,-7,6,-11,26,-31,27
2336,-1,34,-14,8,-9,30,-30,28
2337,-1,41,-22,9,-7,30,-29,30
2338,-1,47,-27,9,-7,28,-28,30
2339,-1,51,-32,9,-8,25,-29,29
2340,0,54,-36,9,-8,24,-29,29
2341,1,56,-40,9,-6,24,-30,29
2342,1,57,-43,9,-6,26,-30,30
2343,1,56,-45,8,-7,28,-30,28
2344,1,52,-44,7,-11,30,-30,25
2345,0,45,-39,5,-18,32,-30,18
2346,-1,36,-34,4,-26,34,-30,10
2347,-2,29,-29,4,-34,34,-29,2
2348,-1,23,-26,6,-38,33,-27,-6
2349,0,18,-21,9,-40,32,-25,-12
2350,3,13,-14,12,-40,29,-23,-19
2351,5,12,-9,15,-39,26,-20,-22
2352,9,16,-10,18,-35,21,-18,-20
2353,12,24,-17,21,-30,18,-14,-14
2354,14,33,-25,23,-23,16,-12,-8
2355,14,44,-35,24,-18,14,-11,-1
2356,13,53,-43,23,-15,12,-12,4
2357,11,61,-50,20,-13,13,-14,6
2358,10,66,-55,18,-13,13,-16,7
2359,9,68,-61,15,-15,14,-18,5
2360,7,67,-66,12,-18,15,-19,2
2361,4,62,-68,10,-22,17,-21,-3
2362,0,53,-63,7,-27,18,-22,-12
2363,-3,40,-52,4,-35,19,-23,-24
2364,-6,28,-39,1,-42,18,-24,-35
2365,-7,19,-28,-1,-46,17,-25,-43
2366,-6,15,-24,-2,-45,17,-24,-47
2367,-5,14,-26,-1,-40,16,-23,-47
2368,-4,16,-31,0,-34,13,-21,-45
2369,-2,18,-36,1,-27,10,-19,-42
2370,-1,21,-40,3,-22,7,-17,-40
2371,1,24,-41,4,-20,4,-14,-39
2372,3,27,-39,6,-19,3,-11,-38
2373,4,31,-34,7,-18,4,-9,-37
2374,6,36,-30,8,-16,6,-6,-34
2375,7,41,-27,8,-13,8,-4,-31
2376,8,45,-23,9,-10,10,-2,-29
2377,8,47,-20,9,-9,12,0,-28
2378,8,47,-18,9,-7,15,1,-28
2379,7,47,-19,8,-6,17,2,-26
2380,7,49,-25,7,-4,17,2,-22
2381,6,51,-35,5,-3,15,2,-17
2382,4,51,-46,3,-3,11,1,-13
2383,2,46,-52,0,-5,9,-1,-13
2384,0,37,-52,-3,-8,7,-2,-16
2385,-2,24,-44,-5,-13,7,-3,-24
2386,-3,10,-30,-6,-18,7,-4,-32
2387,-4,0,-16,-7,-20,7,-5,-38
2388,-4,-6,-8,-7,-20,5,-4,-39
2389,-4,-6,-8,-6,-18,2,-3,-37
2390,-3,-5,-12,-6,-15,-3,-1,-33
2391,-2,-3,-18,-5,-11,-8,2,-29
2392,0,1,-24,-3,-7,-12,5,-25
2393,2,5,-28,-2,-3,-16,7,-21
2394,4,10,-29,0,1,-18,9,-16
2395,5,14,-26,2,6,-19,11,-11
2396,6,19,-22,2,9,-17,11,-6
2397,6,22,-17,2,11,-14,11,-1
2398,5,23,-11,2,10,-11,9,2
2399,4,23,-7,1,9,-10,8,2
2400,2,19,-3,-1,9,-12,6,1
2401,0,14,-1,-2,10,-14,5,-1
2402,-1,9,-2,-4,12,-17,6,-2
2403,0,4,-5,-5,16,-20,6,-2
2404,1,-1,-7,-6,18,-21,7,-1
2405,2,-6,-6,-8,17,-21,8,-1
2406,2,-13,-3,-10,15,-20,7,-3
2407,1,-21,1,-11,13,-19,7,-6
2408,0,-29,3,-12,11,-19,7,-9
2409,-2,-35,4,-12,10,-20,7,-13
2410,-3,-38,2,-12,9,-19,8,-16
2411,-3,-36,-1,-11,8,-20,9,-16
2412,-4,-34,-2,-10,9,-21,10,-15
2413,-4,-31,1,-9,9,-23,11,-13
2414,-4,-28,5,-8,10,-25,12,-11
2415,-3,-26,10,-7,14,-26,13,-8
2416,-2,-23,15,-7,21,-30,13,-6
2417,-2,-23,19,-7,29,-35,12,-5
2418,-3,-24,22,-7,35,-41,11,-5
2419,-4,-27,25,-8,40,-46,9,-7
2420,-6,-30,26,-9,42,-49,7,-10
2421,-8,-32,27,-10,42,-48,5,-11
2422,-10,-33,27,-11,42,-46,4,-12
2423,-12,-33,28,-11,42,-42,3,-11
2424,-13,-32,31,-10,43,-41,2,-9
2425,-13,-29,31,-9,46,-40,3,-5
2426,-12,-25,28,-8,47,-41,4,-1
2427,-10,-22,22,-7,48,-43,5,2
2428,-9,-20,14,-7,48,-44,7,4
2429,-8,-20,8,-8,48,-45,7,6
2430,-7,-20,5,-8,49,-46,7,6
2431,-7,-21,6,-9,50,-46,7,7
2432,-7,-22,7,-9,50,-45,7,8
2433,-7,-21,8,-9,50,-43,8,8
2434,-8,-21,7,-9,48,-41,8,7
2435,-8,-22,8,-8,46,-40,8,6
2436,-9,-24,10,-7,43,-41,9,3
2437,-9,-26,14,-6,41,-41,9,0
2438,-9,-26,17,-5,40,-43,9,-1
2439,-9,-26,17,-4,40,-46,9,1
2440,-9,-25,14,-4,42,-48,8,3
2441,-10,-25,12,-5,43,-50,8,4
2442,-11,-27,11,-5,43,-50,8,4
2443,-11,-28,11,-6,43,-50,8,2
2444,-10,-29,12,-6,41,-49,8,0
2445,-9,-29,11,-6,40,-48,8,-2
2446,-8,-27,8,-7,38,-47,9,-3
2447,-6,-26,3,-7,37,-47,10,-4
2448,-6,-25,-2,-7,35,-45,10,-4
2449,-5,-26,-3,-6,32,-44,10,-6
2450,-5,-27,-3,-5,29,-43,11,-8
2451,-4,-27,-3,-4,27,-42,12,-8
2452,-4,-25,-2,-3,27,-41,14,-6
2453,-3,-23,-2,-3,29,-41,16,-3
2454,-3,-21,-2,-2,31,-41,16,-1
2455,-3,-19,0,-2,32,-42,17,1
2456,-3,-18,3,-2,34,-42,16,3
2457,-3,-16,5,-2,35,-40,16,4
2458,-3,-14,8,-3,34,-36,15,5
2459,-4,-13,9,-5,32,-30,13,5
2460,-4,-13,9,-5,28,-25,11,4
2461,-4,-12,8,-6,26,-25,11,4
2462,-3,-11,6,-5,28,-29,11,6
2463,-2,-10,3,-4,32,-35,11,10
2464,-1,-7,2,-4,37,-39,12,14
2465,0,-5,1,-3,41,-41,11,17
2466,0,-3,1,-4,42,-37,10,19
2467,0,-3,2,-4,39,-29,9,18
2468,0,-4,2,-4,34,-21,8,16
2469,1,-6,1,-4,30,-16,7,14
2470,2,-8,-2,-3,27,-15,7,12
2471,2,-11,-3,-3,25,-15,7,9
2472,2,-13,-3,-3,23,-14,6,6
2473,1,-13,-1,-3,21,-13,6,4
2474,1,-12,-1,-3,22,-13,5,5
2475,0,-11,-2,-4,23,-15,4,6
2476,0,-11,-4,-4,25,-18,4,7
2477,0,-11,-7,-4,25,-22,4,6
2478,-1,-10,-9,-4,25,-24,3,5
2479,-2,-9,-11,-4,24,-24,3,3
2480,-2,-8,-11,-4,21,-21,3,1
2481,-2,-8,-12,-4,19,-18,3,-1
2482,-2,-8,-14,-4,15,-14,3,-2
2483,-1,-10,-15,-4,11,-11,3,-4
2484,-1,-12,-16,-4,7,-9,2,-5
2485,-1,-13,-18,-3,6,-10,2,-6
2486,-2,-12,-18,-2,7,-12,2,-5
2487,-1,-11,-16,-2,9,-13,3,-3
2488,-1,-10,-13,-1,12,-14,4,0
2489,0,-9,-8,-1,16,-17,5,2
2490,-1,-9,-3,-1,18,-18,5,3
2491,-2,-10,3,-1,18,-17,4,2
2492,-3,-11,6,-2,17,-17,4,1
2493,-4,-10,6,-2,16,-17,3,1
2494,-5,-8,3,-3,15,-15,2,2
2495,-5,-5,-1,-3,16,-11,2,4
2496,-5,-3,-4,-3,16,-7,2,5
2497,-5,-1,-7,-3,16,-6,3,5
2498,-5,-2,-9,-3,16,-6,4,3
2499,-5,-4,-8,-3,14,-6,5,-1
2500,-6,-5,-7,-3,13,-7,6,-4
2501,-6,-5,-7,-3,12,-7,7,-4
2502,-6,-3,-7,-2,13,-7,8,-3
2503,-6,-1,-6,0,14,-7,9,-2
2504,-6,-1,-3,1,13,-6,9,-3
2505,-5,-1,-2,2,12,-6,9,-4
2506,-5,-1,-3,3,11,-7,9,-6
2507,-5,-1,-5,3,9,-8,8,-8
2508,-6,-2,-8,2,7,-9,6,-9
2509,-7,-3,-9,1,5,-9,5,-11
2510,-8,-5,-8,0,4,-8,4,-12
2511,-9,-9,-6,-1,1,-8,3,-13
2512,-9,-13,-2,-1,-2,-8,3,-13
2513,-8,-17,2,0,-3,-8,3,-13
2514,-6,-18,3,1,-2,-8,5,-12
2515,-4,-17,-2,3,-1,-7,6,-12
2516,-3,-15,-8,4,1,-5,8,-12
2517,-2,-13,-15,4,2,-4,9,-13
2518,-1,-11,-20,3,1,-3,10,-16
2519,-2,-10,-21,3,-3,-3,11,-18
2520,-3,-10,-19,2,-7,-2,11,-21
2521,-5,-10,-14,2,-10,-1,12,-23
2522,-6,-11,-10,3,-11,0,12,-25
2523,-8,-12,-9,3,-11,1,12,-26
2524,-10,-13,-8,2,-10,-1,11,-26
2525,-10,-13,-8,1,-9,-3,11,-26
2526,-11,-11,-8,0,-7,-4,10,-24
2527,-11,-10,-8,-1,-6,-4,8,-22
2528,-11,-9,-8,-2,-5,-1,7,-21
2529,-11,-9,-8,-4,-5,2,7,-21
2530,-11,-10,-7,-5,-6,4,6,-22
2531,-11,-12,-5,-6,-6,4,6,-23
2532,-11,-16,-1,-7,-7,4,5,-24
2533,-11,-20,5,-7,-8,4,4,-25
2534,-11,-22,8,-8,-11,5,3,-27
2535,-12,-24,7,-8,-14,7,3,-28
2536,-12,-24,4,-8,-18,8,2,-30
2537,-13,-23,-1,-7,-20,7,2,-31
2538,-13,-19,-8,-6,-20,5,2,-30
2539,-13,-14,-15,-3,-18,0,3,-28
2540,-12,-9,-20,-1,-14,-4,4,-25
2541,-12,-5,-23,1,-10,-7,6,-22
2542,-11,-2,-27,3,-6,-8,7,-20
2543,-10,-1,-32,4,-4,-11,9,-18
2544,-9,-2,-34,4,-2,-13,9,-17
2545,-9,-5,-33,4,-2,-16,9,-18
2546,-9,-8,-30,3,-3,-15,9,-20
2547,-9,-11,-25,3,-5,-12,8,-22
2548,-10,-12,-20,2,-8,-9,7,-24
2549,-10,-13,-16,1,-11,-7,6,-26
2550,-11,-14,-12,-1,-13,-5,5,-27
2551,-11,-14,-10,-2,-15,-4,5,-28
2552,-12,-14,-11,-2,-17,-3,4,-29
2553,-13,-14,-13,-3,-17,-2,4,-30
2554,-13,-13,-15,-3,-16,-1,4,-30
2555,-13,-12,-16,-2,-15,-1,3,-29
2556,-13,-11,-17,-2,-14,0,4,-28
2557,-12,-10,-16,-2,-13,0,4,-27
2558,-11,-9,-14,-1,-12,-1,5,-27
2559,-10,-9,-12,0,-10,-2,7,-26
2560,-9,-9,-11,1,-8,-3,8,-26
2561,4,12,21,1,19,15,2,43
2562,4,12,19,1,18,14,2,43
2563,3,11,18,1,17,16,1,42
2564,4,9,18,0,13,18,0,40
2565,4,7,18,0,10,20,-1,38
2566,5,5,19,-1,9,20,-1,36
2567,6,4,19,0,9,18,-2,36
2568,7,3,21,0,9,16,-1,35
2569,7,2,21,1,9,15,-1,35
2570,6,1,20,1,9,15,-1,36
2571,6,1,17,1,8,17,-2,35
2572,5,2,14,0,6,19,-3,34
2573,5,3,12,-1,4,20,-4,34
2574,5,4,10,-1,4,18,-4,35
2575,6,5,12,-1,5,16,-3,36
2576,6,5,17,-1,7,14,-3,38
2577,6,5,20,-1,9,13,-2,39
2578,6,6,23,-1,10,13,-1,41
2579,6,6,25,0,10,14,0,41
2580,5,4,28,0,9,17,1,38
2581,5,2,32,-1,8,21,2,36
2582,6,0,36,0,6,25,2,34
2583,7,-1,37,0,6,28,3,33
2584,7,1,37,1,7,29,3,33
2585,7,3,35,2,9,28,2,35
2586,7,5,33,2,11,24,1,37
2587,6,7,31,2,14,20,0,39
2588,4,7,31,2,16,16,-1,40
2589,3,5,33,1,17,15,-2,41
2590,3,4,36,0,17,16,-2,40
2591,3,3,39,-1,18,18,-2,40
2592,2,3,40,-2,19,21,-3,41
2593,2,4,39,-3,20,24,-3,42
2594,1,6,36,-3,20,26,-3,44
2595,1,9,33,-3,21,26,-2,46
2596,1,11,30,-2,23,24,-1,48
2597,1,11,29,-2,24,22,1,48
2598,2,10,30,-1,25,20,3,47
2599,3,7,31,-1,26,18,3,46
2600,3,5,31,-1,26,16,4,45
2601,4,2,30,-1,26,15,4,44
2602,5,0,28,-1,25,16,5,43
2603,6,-1,27,-1,25,17,5,42
2604,6,-2,28,-1,25,18,5,41
2605,5,-2,30,-1,24,20,5,40
2606,5,-1,30,-1,24,22,5,40
2607,5,2,30,-1,24,23,5,41
2608,4,4,30,-1,26,24,4,43
2609,4,6,30,-1,28,24,4,46
2610,4,8,30,-2,30,24,3,50
2611,4,10,31,-3,32,25,3,52
2612,4,9,34,-4,32,27,3,53
2613,4,8,37,-6,31,29,2,53
2614,4,7,39,-7,30,31,1,51
2615,4,7,40,-7,29,32,1,50
2616,4,7,39,-7,28,33,2,50
2617,3,7,38,-7,27,31,2,50
2618,3,6,36,-6,27,28,3,50
2619,3,3,35,-5,27,26,4,50
2620,4,-1,35,-4,26,24,4,49
2621,5,-5,36,-4,25,22,4,48
2622,6,-9,36,-4,25,22,4,47
2623,6,-10,37,-4,26,24,4,47
2624,7,-11,38,-4,27,25,4,47
2625,8,-9,38,-4,31,24,5,49
2626,9,-6,36,-4,34,22,5,52
2627,9,-2,33,-4,37,20,6,55
2628,9,3,31,-3,40,18,7,59
2629,8,9,27,-2,42,17,7,62
2630,8,13,25,-1,44,16,7,63
2631,7,17,25,-1,45,16,7,63
2632,6,20,26,0,46,16,7,63
2633,6,24,26,0,46,16,7,63
2634,6,27,26,-1,47,17,6,65
2635,6,29,27,-2,47,19,5,66
2636,5,28,30,-4,46,22,4,66
2637,3,24,33,-5,46,25,3,65
2638,1,19,36,-6,44,28,2,63
2639,0,14,39,-7,41,31,2,61
2640,-1,10,41,-7,38,33,2,59
2641,-1,7,42,-6,35,34,2,57
2642,0,5,42,-5,32,32,3,54
2643,1,3,41,-4,31,29,4,53
2644,2,1,40,-4,32,26,4,52
2645,3,-1,38,-3,33,23,5,51
2646,4,-2,38,-3,35,22,6,50
2647,4,-3,40,-3,37,21,7,49
2648,4,-3,42,-4,38,21,7,49
2649,5,-1,42,-5,40,21,8,49
2650,5,2,41,-5,42,19,9,51
2651,5,6,38,-5,45,18,10,54
2652,6,11,35,-5,47,18,11,57
2653,5,17,31,-5,48,18,11,61
2654,5,22,29,-5,48,20,10,63
2655,4,28,28,-5,48,22,9,64
2656,3,33,28,-5,49,25,8,67
2657,2,38,28,-5,50,27,8,71
2658,2,41,28,-5,51,28,7,73
2659,1,42,30,-5,52,28,7,75
2660,0,40,31,-5,53,29,6,75
2661,0,37,32,-5,55,29,6,75
2662,0,32,33,-5,55,29,5,75
2663,0,25,35,-5,55,29,5,73
2664,0,18,39,-6,55,29,4,70
2665,-1,10,42,-6,53,29,4,66
2666,-2,3,47,-7,50,30,4,60
2667,-3,-2,50,-8,47,30,4,56
2668,-2,-4,52,-9,45,30,5,53
2669,-2,-4,51,-9,43,27,7,53
2670,-1,-1,48,-9,42,26,9,53
2671,-1,1,44,-10,40,26,9,53
2672,-2,3,40,-12,38,26,9,52
2673,-3,5,38,-13,37,28,8,51
2674,-4,6,38,-13,37,29,8,51
2675,-5,7,38,-13,39,28,7,51
2676,-5,9,37,-12,43,26,7,53
2677,-5,13,35,-11,47,23,7,56
2678,-5,18,32,-11,50,23,7,60
2679,-4,23,32,-11,51,24,8,63
2680,-3,25,33,-11,53,27,9,65
2681,-3,27,34,-10,55,28,9,67
2682,-3,27,35,-10,57,27,10,69
2683,-3,28,35,-10,60,25,10,70
2684,-2,30,32,-11,62,23,10,71
2685,-2,32,29,-11,64,21,10,72
2686,-2,33,28,-11,65,20,10,73
2687,-2,31,31,-12,66,20,10,71
2688,-3,27,35,-12,65,20,9,69
2689,-4,23,37,-12,63,21,9,66
2690,-5,21,38,-12,61,23,9,63
2691,-5,19,39,-12,57,27,9,60
2692,-6,19,40,-13,53,32,9,57
2693,-5,20,39,-13,50,34,10,56
2694,-5,21,37,-13,48,34,10,55
2695,-4,21,37,-13,46,35,10,54
2696,-3,21,36,-13,45,35,10,53
2697,-3,21,35,-13,45,34,10,53
2698,-2,21,33,-13,47,31,9,54
2699,-2,21,32,-13,49,27,9,55
2700,-1,21,31,-12,52,23,9,58
2701,1,23,30,-12,55,20,9,61
2702,2,24,29,-11,56,20,10,64
2703,2,26,30,-11,55,23,9,66
2704,2,27,30,-11,55,26,9,67
2705,2,28,28,-12,56,27,8,68
2706,1,29,27,-13,57,26,7,69
2707,-1,30,27,-14,59,25,6,69
2708,-1,31,27,-15,61,24,7,70
2709,-2,32,25,-15,62,21,8,71
2710,-3,33,24,-15,63,18,8,71
2711,-4,32,22,-15,62,14,9,69
2712,-5,30,21,-15,60,13,9,66
2713,-5,27,21,-15,56,14,9,63
2714,-5,23,22,-14,53,17,8,59
2715,-5,18,24,-14,50,20,7,56
2716,-4,15,25,-14,47,21,7,53
2717,-3,13,25,-13,46,21,7,53
2718,-3,13,25,-12,44,19,7,53
2719,-3,15,26,-11,43,18,6,53
2720,-4,17,27,-10,41,17,5,54
2721,-5,20,28,-9,41,17,5,56
2722,-6,22,28,-8,42,16,4,58
2723,-7,23,30,-8,43,16,4,59
2724,-7,25,30,-7,43,17,3,59
2725,-8,27,30,-8,42,19,3,58
2726,-8,30,30,-9,42,20,3,58
2727,-8,31,29,-10,43,21,3,58
2728,-8,33,29,-11,45,21,3,58
2729,-8,32,28,-12,46,20,4,58
2730,-8,31,27,-13,47,21,4,56
2731,-7,28,28,-13,48,22,5,54
2732,-6,26,28,-13,47,23,6,52
2733,-4,25,26,-12,48,22,7,51
2734,-3,26,22,-11,48,19,8,52
2735,-2,28,17,-10,49,15,9,55
2736,-1,29,13,-9,50,11,10,57
2737,-2,29,12,-8,50,9,10,57
2738,-2,27,15,-6,50,8,9,57
2739,-3,26,20,-5,49,8,9,57
2740,-3,26,24,-5,49,9,8,56
2741,-3,27,23,-5,49,9,9,57
2742,-2,31,20,-5,50,9,9,58
2743,-2,35,16,-6,50,10,10,60
2744,-1,37,13,-7,51,11,11,59
2745,-1,38,13,-8,51,12,11,58
2746,-1,39,16,-9,51,14,10,57
2747,-1,38,19,-10,50,16,9,56
2748,-2,37,22,-11,49,17,8,55
2749,-3,35,24,-12,48,16,7,54
2750,-4,32,26,-13,47,15,6,53
2751,-5,28,28,-13,47,15,5,51
2752,-5,24,30,-14,45,16,4,49
2753,-6,20,30,-14,44,14,4,47
2754,-5,17,28,-14,44,12,3,45
2755,-5,16,24,-13,44,9,3,45
2756,-4,16,21,-13,44,6,4,45
2757,-3,16,18,-12,44,3,5,45
2758,-3,17,16,-12,43,2,5,44
2759,-3,18,16,-12,42,2,6,43
2760,-4,18,17,-12,40,3,6,41
2761,-4,19,18,-12,39,4,7,40
2762,-4,20,19,-12,40,4,7,40
2763,-4,21,20,-13,42,5,7,41
2764,-4,22,22,-14,43,7,7,42
2765,-4,23,24,-16,43,9,7,41
2766,-4,23,24,-17,42,12,7,39
2767,-6,23,24,-18,42,12,6,37
2768,-7,22,21,-19,41,10,5,35
2769,-7,21,18,-20,41,7,4,34
2770,-8,19,17,-20,40,4,3,33
2771,-8,17,17,-19,38,4,2,31
2772,-8,13,18,-18,34,6,0,28
2773,-8,11,20,-17,29,10,-1,25
2774,-8,8,22,-15,26,12,0,23
2775,-8,6,23,-14,26,11,1,21
2776,-7,6,21,-12,27,9,2,21
2777,-7,7,18,-11,29,7,3,22
2778,-5,10,14,-11,30,5,4,23
2779,-4,13,11,-11,31,6,5,25
2780,-3,17,9,-11,31,8,6,27
2781,-2,20,8,-12,32,11,6,28
2782,-1,22,8,-14,33,12,6,30
2783,1,24,7,-15,35,10,6,32
2784,2,25,6,-16,37,6,6,33
2785,2,27,4,-17,38,3,6,35
2786,3,28,2,-17,38,3,7,35
2787,3,29,2,-17,35,5,7,33
2788,4,28,4,-16,32,8,7,31
2789,3,27,6,-16,29,11,7,28
2790,3,25,7,-15,27,12,6,26
2791,2,24,9,-15,26,11,6,25
2792,1,22,11,-14,26,10,5,24
2793,-1,20,12,-14,26,9,4,23
2794,-2,17,14,-14,25,10,3,22
2795,-2,14,17,-13,24,11,3,20
2796,-2,10,19,-13,24,11,3,19
2797,-1,8,21,-12,25,10,3,18
2798,-1,6,21,-12,27,9,3,19
2799,-1,6,21,-11,29,8,3,19
2800,-1,6,20,-12,30,7,3,19
2801,-1,8,17,-12,31,7,3,20
2802,0,9,14,-12,30,8,4,20
2803,1,11,12,-13,28,9,4,20
2804,2,14,9,-13,26,9,5,20
2805,2,18,5,-13,25,9,6,21
2806,2,22,2,-13,24,7,6,22
2807,2,25,-2,-13,24,5,6,23
2808,2,29,-4,-13,24,4,5,24
2809,2,32,-7,-13,25,5,4,24
2810,3,34,-10,-13,25,8,3,25
2811,3,36,-13,-13,25,10,2,24
2812,2,37,-18,-14,25,9,2,23
2813,1,38,-22,-14,26,6,1,22
2814,0,37,-22,-14,26,2,1,20
2815,-1,35,-20,-14,24,1,2,18
2816,-1,33,-15,-13,22,1,2,16
2817,-1,29,-9,-12,20,3,2,13
2818,-1,23,-5,-11,18,5,2,11
2819,-1,16,-2,-11,16,3,1,7
2820,-3,8,-1,-11,16,0,-1,3
2821,-4,2,1,-11,15,-4,-2,-1
2822,-5,-2,3,-11,14,-6,-2,-3
2823,-5,-3,5,-11,13,-5,-1,-4
2824,-4,-3,7,-10,12,-3,0,-5
2825,-4,-2,7,-10,11,-2,1,-4
2826,-2,1,5,-9,12,-3,2,-3
2827,-1,5,1,-8,14,-4,2,-1
2828,-1,10,-3,-7,15,-5,2,2
2829,-1,14,-7,-8,15,-4,1,3
2830,-1,18,-12,-8,15,-4,0,5
2831,-2,21,-16,-10,14,-4,-2,5
2832,-3,23,-19,-11,14,-4,-3,5
2833,-4,23,-21,-14,13,-3,-4,3
2834,-5,23,-21,-16,11,-1,-5,1
2835,-7,21,-22,-17,9,1,-6,-2
2836,-8,20,-23,-18,7,3,-7,-4
2837,-9,19,-23,-19,6,5,-8,-6
2838,-10,18,-25,-19,5,4,-8,-7
2839,-10,18,-26,-18,4,1,-8,-7
2840,-9,17,-25,-18,3,-1,-7,-8
2841,-8,15,-23,-17,0,-1,-6,-12
2842,-7,12,-21,-15,-3,0,-4,-16
2843,-5,10,-20,-13,-4,1,-2,-19
2844,-2,9,-21,-11,-4,1,-1,-21
2845,0,8,-22,-9,-2,1,1,-20
2846,1,8,-22,-8,0,0,2,-19
2847,1,8,-23,-7,3,-3,3,-16
2848,1,9,-24,-6,7,-5,4,-12
2849,0,11,-23,-6,10,-8,4,-7
2850,-2,13,-21,-7,12,-8,3,-4
2851,-4,15,-18,-8,12,-6,2,-2
2852,-6,16,-13,-9,12,-2,1,-3
2853,-9,15,-9,-10,10,3,-2,-5
2854,-11,14,-5,-11,8,9,-4,-9
2855,-13,14,-1,-12,6,15,-7,-11
2856,-15,14,0,-13,4,18,-10,-12
2857,-15,15,0,-14,4,17,-13,-12
2858,-14,14,-1,-14,4,12,-14,-12
2859,-13,13,-1,-15,5,6,-14,-12
2860,-12,10,-2,-14,7,0,-14,-13
2861,-11,8,-3,-14,8,-4,-14,-13
2862,-10,7,-5,-13,9,-6,-12,-13
2863,-8,7,-8,-12,9,-6,-11,-13
2864,-6,8,-13,-11,9,-6,-9,-13
2865,-3,8,-17,-8,7,-6,-6,-14
2866,-1,8,-19,-6,5,-5,-3,-16
2867,2,8,-18,-4,2,-4,-1,-18
2868,3,8,-16,-3,0,-2,0,-20
2869,4,9,-16,-2,-1,-2,1,-19
2870,4,11,-17,-2,1,-5,0,-18
2871,4,12,-18,-3,4,-9,-1,-16
2872,3,13,-18,-3,8,-12,-2,-14
2873,2,15,-18,-4,11,-14,-2,-12
2874,1,16,-19,-5,14,-15,-3,-10
2875,0,18,-19,-6,16,-14,-4,-8
2876,-1,20,-20,-7,16,-11,-4,-6
2877,-1,20,-18,-8,14,-8,-4,-6
2878,-1,18,-13,-8,12,-4,-4,-6
2879,-1,15,-8,-8,10,-2,-4,-8
2880,-1,14,-6,-7,10,-2,-4,-8
2881,-1,15,-7,-7,10,-4,-4,-8
2882,-1,16,-10,-6,11,-8,-4,-7
2883,0,18,-14,-6,12,-13,-3,-6
2884,1,19,-16,-5,14,-17,-2,-6
2885,2,21,-18,-4,14,-19,-1,-6
2886,2,22,-19,-2,13,-20,0,-6
2887,2,24,-21,-1,12,-21,1,-6
2888,2,26,-23,0,10,-22,2,-5
2889,2,26,-26,1,9,-23,2,-4
2890,2,25,-26,1,7,-23,2,-5
2891,2,22,-25,1,5,-21,2,-7
2892,1,18,-22,0,4,-18,0,-8
2893,0,14,-19,0,4,-16,-1,-10
2894,-1,11,-16,-1,3,-13,-3,-12
2895,-1,10,-14,-2,3,-10,-4,-12
2896,0,9,-15,-3,1,-7,-5,-12
2897,1,10,-17,-3,-2,-4,-5,-13
2898,1,12,-19,-3,-3,-4,-5,-13
2899,1,13,-21,-3,-4,-6,-5,-12
2900,1,14,-23,-3,-4,-10,-5,-11
2901,2,13,-23,-3,-4,-12,-5,-12
2902,2,11,-22,-2,-6,-13,-4,-14
2903,2,7,-20,-2,-9,-11,-3,-17
2904,2,2,-16,-2,-13,-7,-2,-22
2905,1,-3,-11,-2,-16,-3,-2,-26
2906,1,-7,-7,-2,-17,-3,-2,-29
2907,1,-9,-7,-1,-14,-7,-1,-29
2908,2,-9,-10,-1,-12,-13,1,-28
2909,3,-10,-14,0,-10,-18,2,-27
2910,3,-12,-16,0,-10,-19,3,-27
2911,3,-14,-15,-1,-10,-19,3,-27
2912,3,-16,-12,-1,-10,-16,3,-28
2913,2,-19,-9,-3,-11,-12,3,-30
2914,2,-21,-8,-4,-11,-9,3,-32
2915,2,-23,-9,-5,-12,-9,2,-33
2916,1,-24,-11,-7,-14,-9,0,-35
2917,0,-24,-12,-7,-15,-9,-2,-37
2918,-1,-23,-12,-8,-16,-7,-3,-38
2919,-1,-21,-11,-8,-17,-5,-5,-38
2920,-1,-18,-10,-7,-17,-3,-5,-37
2921,-1,-15,-7,-6,-18,-1,-5,-37
2922,0,-12,-4,-6,-18,0,-4,-36
2923,1,-10,-4,-5,-18,-1,-3,-35
2924,1,-7,-6,-3,-17,-4,-1,-33
2925,2,-4,-8,-2,-14,-8,1,-30
2926,2,-2,-11,-2,-12,-12,2,-27
2927,2,-1,-14,-1,-9,-15,2,-24
2928,2,0,-16,-1,-7,-17,2,-22
2929,1,1,-15,-1,-7,-17,1,-22
2930,0,1,-14,-2,-7,-16,0,-23
2931,0,0,-14,-1,-8,-14,0,-24
2932,-1,-1,-13,-1,-8,-13,1,-25
2933,-1,-2,-12,0,-9,-13,1,-26
2934,-1,-2,-12,1,-9,-13,1,-27
2935,-2,-1,-13,1,-8,-14,1,-27
2936,-3,1,-14,1,-8,-14,0,-27
2937,-5,2,-14,-1,-7,-12,-2,-27
2938,-6,2,-13,-3,-8,-7,-4,-29
2939,-8,1,-11,-5,-9,-2,-5,-32
2940,-8,0,-8,-6,-11,1,-6,-35
2941,-8,-1,-7,-6,-11,0,-6,-36
2942,-7,0,-9,-5,-9,-5,-5,-36
2943,-7,2,-12,-4,-8,-10,-4,-35
2944,-7,3,-15,-4,-6,-15,-3,-34
2945,-7,3,-16,-4,-6,-17,-2,-34
2946,-6,2,-16,-4,-9,-14,-2,-35
2947,-6,1,-13,-4,-13,-9,-2,-36
2948,-5,0,-10,-4,-17,-4,-1,-37
2949,-3,0,-9,-3,-18,-3,0,-36
2950,-1,1,-9,-2,-19,-2,1,-33
2951,2,2,-10,-1,-20,-3,3,-30
2952,4,2,-12,-1,-20,-4,4,-28
2953,5,2,-13,0,-20,-6,5,-28
2954,6,0,-12,0,-21,-6,5,-29
2955,5,-2,-9,1,-22,-5,5,-31
2956,4,-4,-7,1,-23,-4,5,-33
2957,3,-6,-6,1,-22,-4,4,-35
2958,1,-7,-7,1,-21,-5,3,-37
2959,0,-7,-11,0,-20,-7,1,-38
2960,-1,-7,-14,0,-19,-8,-1,-39
2961,-1,-6,-17,-1,-19,-7,-2,-40
2962,0,-5,-17,-1,-19,-6,-2,-41
2963,1,-3,-15,-1,-18,-5,-2,-41
2964,2,-1,-13,-1,-17,-4,-2,-40
2965,3,2,-13,-1,-17,-6,-3,-38
2966,3,3,-16,-1,-16,-10,-2,-35
2967,4,4,-21,0,-16,-16,-1,-33
2968,6,4,-26,2,-15,-24,1,-31
2969,7,4,-31,4,-13,-32,3,-30
2970,8,3,-33,5,-12,-35,5,-29
2971,7,1,-31,4,-13,-33,5,-31
2972,6,-2,-25,3,-15,-27,4,-35
2973,5,-5,-20,0,-18,-19,2,-39
2974,4,-6,-17,-2,-21,-12,1,-42
2975,3,-7,-16,-3,-23,-9,0,-45
2976,4,-7,-18,-3,-24,-9,0,-45
2977,5,-6,-21,-2,-23,-12,2,-44
2978,6,-4,-24,-1,-23,-15,4,-42
2979,6,-3,-25,1,-23,-16,6,-41
2980,6,-3,-24,1,-24,-15,7,-41
2981,4,-3,-21,1,-25,-12,7,-41
2982,2,-3,-19,1,-26,-9,6,-41
2983,0,-4,-16,-1,-27,-7,5,-43
2984,-1,-7,-13,-2,-27,-5,4,-45
2985,-2,-9,-11,-3,-27,-4,3,-47
2986,-2,-11,-11,-4,-28,-4,3,-49
2987,-2,-12,-12,-5,-29,-4,3,-50
2988,-2,-12,-14,-6,-30,-4,3,-50
2989,-2,-11,-15,-6,-31,-4,3,-49
2990,-2,-9,-16,-7,-32,-6,3,-47
2991,-2,-8,-16,-7,-32,-7,3,-45
2992,-3,-7,-15,-6,-31,-8,2,-43
2993,-3,-7,-13,-6,-31,-8,1,-42
2994,-4,-7,-11,-6,-30,-7,-1,-42
2995,-4,-7,-11,-5,-28,-7,-2,-40
2996,-4,-7,-12,-4,-28,-7,-2,-38
2997,-4,-6,-15,-3,-28,-7,-3,-36
2998,-4,-5,-19,-3,-29,-6,-4,-34
2999,-3,-4,-21,-2,-30,-4,-4,-32
3000,-2,-4,-22,-2,-30,-4,-4,-31
3001,-1,-5,-21,-2,-29,-5,-3,-31
3002,0,-6,-20,-2,-28,-7,-3,-31
3003,0,-7,-19,-2,-26,-10,-3,-31
3004,0,-7,-18,-3,-24,-12,-3,-31
3005,0,-6,-16,-4,-22,-9,-5,-31
3006,-1,-3,-16,-5,-22,-5,-6,-30
3007,-2,-1,-15,-6,-21,-1,-8,-29
3008,-3,2,-15,-7,-21,1,-9,-28
3009,-3,3,-15,-8,-20,3,-10,-26
3010,-4,4,-16,-8,-20,3,-11,-25
3011,-4,4,-15,-8,-19,2,-12,-25
3012,-4,3,-13,-8,-19,1,-12,-26
3013,-5,2,-11,-7,-19,-1,-12,-26
3014,-4,1,-10,-5,-19,-4,-10,-27
3015,-4,1,-10,-3,-20,-6,-8,-28
3016,-3,0,-12,-1,-20,-7,-6,-28
3017,-2,0,-13,1,-21,-8,-5,-28
3018,-1,-1,-15,2,-22,-8,-4,-27
3019,0,-1,-16,3,-22,-9,-3,-26
3020,1,-2,-16,3,-23,-10,-2,-25
3021,2,-2,-15,3,-23,-10,-2,-24
3022,3,-3,-13,2,-23,-8,-2,-24
3023,3,-6,-11,1,-24,-6,-3,-25
3024,3,-9,-8,0,-24,-5,-4,-27
3025,3,-11,-6,-1,-22,-5,-5,-28
3026,2,-9,-7,-1,-20,-7,-6,-27
3027,3,-5,-11,-1,-17,-10,-6,-24
3028,4,0,-16,-1,-14,-11,-6,-20
3029,4,4,-20,-1,-13,-10,-6,-17
3030,4,5,-21,-1,-13,-8,-5,-16
3031,4,5,-20,-1,-13,-7,-4,-17
3032,4,3,-18,-1,-12,-7,-4,-18
3033,5,2,-17,-1,-11,-10,-4,-18
3034,6,1,-18,0,-9,-13,-3,-17
3035,7,0,-18,1,-8,-16,-3,-15
3036,8,-3,-17,2,-8,-17,-3,-15
3037,9,-7,-13,3,-10,-14,-3,-17
3038,9,-11,-10,4,-13,-12,-3,-20
3039,8,-14,-7,5,-17,-12,-3,-23
3040,7,-16,-5,6,-19,-13,-3,-26
3041,5,-17,-5,7,-22,-14,-3,-30
3042,3,-19,-4,6,-24,-14,-3,-33
3043,1,-21,-4,5,-26,-13,-4,-36
3044,0,-22,-5,4,-27,-12,-4,-36
3045,-1,-21,-8,3,-27,-11,-5,-36
3046,-1,-20,-11,2,-28,-11,-5,-35
3047,0,-19,-14,2,-28,-13,-5,-34
3048,0,-19,-14,2,-27,-16,-5,-34
3049,1,-21,-11,3,-26,-17,-5,-36
3050,1,-25,-8,3,-26,-17,-5,-38
3051,1,-28,-6,3,-25,-17,-5,-39
3052,1,-29,-8,3,-23,-19,-5,-39
3053,2,-29,-11,2,-23,-19,-5,-37
3054,2,-29,-14,1,-23,-19,-5,-36
3055,3,-28,-18,-1,-23,-18,-6,-35
3056,3,-27,-18,-2,-24,-17,-6,-35
3057,2,-27,-17,-3,-24,-15,-8,-35
3058,2,-26,-16,-4,-24,-13,-8,-35
3059,1,-24,-14,-4,-24,-11,-9,-34
3060,1,-22,-12,-4,-24,-9,-10,-32
3061,0,-21,-10,-3,-25,-6,-10,-32
3062,0,-20,-8,-3,-28,-2,-10,-32
3063,-1,-21,-8,-2,-30,0,-11,-33
3064,-1,-22,-10,-1,-31,-3,-11,-34
3065,-2,-22,-13,1,-30,-10,-11,-34
3066,-1,-23,-16,3,-28,-17,-11,-33
3067,-1,-25,-17,4,-27,-21,-10,-33
3068,0,-26,-17,5,-27,-22,-8,-34
3069,1,-28,-16,5,-28,-18,-7,-35
3070,1,-29,-14,5,-30,-14,-7,-36
3071,1,-28,-14,4,-31,-13,-7,-34
3072,1,-26,-14,3,-30,-14,-7,-31
3073,1,-22,-14,2,-28,-16,-6,-27
3074,0,-19,-14,2,-28,-15,-5,-24
3075,-1,-18,-12,2,-30,-10,-5,-23
3076,-2,-18,-9,2,-34,-3,-4,-24
3077,-2,-20,-6,2,-38,2,-5,-26
3078,-2,-22,-5,2,-39,2,-5,-28
3079,-1,-22,-5,2,-38,-1,-5,-28
3080,0,-21,-6,1,-37,-3,-4,-27
3081,1,-18,-8,1,-36,-4,-3,-25
3082,3,-16,-8,2,-36,-2,-2,-25
3083,4,-14,-8,3,-37,2,0,-25
3084,6,-13,-7,4,-38,3,2,-25
3085,8,-13,-8,7,-37,1,4,-24
3086,10,-13,-9,10,-34,-3,6,-23
3087,12,-12,-11,12,-31,-7,8,-21
3088,13,-11,-11,14,-28,-9,9,-19
3089,13,-10,-9,15,-25,-10,9,-17
3090,14,-10,-6,15,-22,-11,9,-14
3091,14,-11,-4,16,-19,-11,8,-12
3092,14,-11,-2,16,-17,-11,8,-10
3093,14,-11,0,17,-15,-11,8,-8
3094,13,-12,2,17,-14,-12,8,-7
3095,12,-13,5,16,-14,-11,7,-8
3096,12,-16,7,15,-16,-10,6,-9
3097,12,-19,9,14,-17,-9,5,-11
3098,13,-22,9,13,-19,-9,5,-13
3099,14,-24,9,13,-19,-8,5,-14
3100,16,-25,9,13,-20,-7,5,-14
3101,17,-26,9,12,-21,-7,6,-14
3102,17,-27,7,12,-23,-7,6,-14
3103,17,-27,5,12,-24,-7,6,-14
3104,17,-28,2,12,-26,-6,6,-14
3105,16,-29,0,13,-28,-6,7,-13
3106,15,-30,-2,14,-29,-5,7,-13
3107,14,-28,-3,15,-29,-6,7,-11
3108,14,-25,-4,15,-27,-7,7,-8
3109,15,-22,-4,16,-26,-8,7,-4
3110,16,-19,-2,16,-23,-9,8,1
3111,17,-17,1,17,-21,-8,9,4
3112,18,-16,5,17,-20,-6,9,6
3113,19,-17,9,16,-19,-3,10,7
3114,18,-19,12,16,-20,-1,9,7
3115,18,-19,12,14,-23,1,9,6
3116,17,-20,12,14,-25,2,8,6
3117,17,-20,13,13,-28,4,7,5
3118,17,-20,16,12,-31,7,6,4
3119,17,-22,19,12,-32,9,6,3
3120,18,-24,22,11,-32,11,6,1
3121,19,-27,25,12,-31,10,7,-1
3122,20,-31,28,12,-31,9,8,-3
3123,19,-35,30,13,-30,9,8,-5
3124,19,-38,33,14,-31,11,8,-8
3125,17,-39,33,14,-31,13,8,-10
3126,16,-37,32,14,-30,14,9,-9
3127,15,-32,28,15,-28,15,9,-6
3128,15,-26,24,15,-26,16,9,-3
3129,16,-20,21,16,-24,15,10,2
3130,16,-14,20,17,-21,14,11,7
3131,17,-9,20,19,-17,14,11,11
3132,17,-5,22,20,-12,13,12,16
3133,16,-2,23,20,-8,11,11,20
3134,14,-1,25,20,-4,10,11,22
3135,12,0,27,19,-3,13,10,23
3136,11,-1,31,19,-4,18,8,23
3137,9,-3,35,18,-6,21,7,21
3138,9,-5,39,17,-9,23,6,20
3139,8,-6,41,17,-12,24,5,18
3140,7,-7,41,16,-15,24,5,17
3141,7,-9,40,16,-19,23,4,16
3142,7,-11,38,15,-21,22,4,16
3143,8,-12,37,14,-23,21,3,16
3144,9,-13,36,14,-23,21,3,17
3145,10,-14,36,13,-23,20,3,17
3146,10,-16,35,12,-23,21,4,17
3147,11,-17,35,12,-23,22,4,17
3148,12,-19,35,11,-23,23,4,16
3149,13,-20,34,12,-22,20,5,16
3150,14,-22,31,12,-19,16,5,16
3151,14,-22,30,12,-15,12,4,17
3152,15,-22,31,13,-12,11,3,17
3153,15,-22,31,13,-8,10,2,18
3154,15,-21,32,14,-4,9,2,20
3155,15,-21,35,16,-1,10,2,21
3156,16,-22,38,16,2,10,2,21
3157,16,-22,40,16,4,10,3,21
3158,17,-21,40,16,3,10,4,21
3159,17,-19,39,14,2,11,6,22
3160,18,-15,37,13,1,12,7,24
3161,18,-12,36,12,0,11,8,27
3162,18,-9,34,11,1,9,9,30
3163,18,-9,33,11,1,8,10,32
3164,18,-11,33,11,-1,10,10,32
3165,19,-14,34,11,-4,13,9,31
3166,20,-17,36,11,-8,16,9,30
3167,20,-20,38,11,-11,19,9,28
3168,20,-24,40,11,-13,20,9,26
3169,21,-25,41,11,-14,20,10,24
3170,21,-26,40,11,-12,17,11,24
3171,22,-24,37,11,-11,14,12,24
3172,24,-23,34,11,-9,12,13,24
3173,24,-22,33,11,-7,12,13,24
3174,25,-22,36,10,-6,14,12,24
3175,24,-23,41,10,-5,17,11,23
3176,24,-23,45,10,-5,20,10,22
3177,24,-23,46,9,-5,22,9,21
3178,24,-23,45,9,-5,22,9,21
3179,25,-21,42,10,-5,22,10,23
3180,26,-18,39,11,-3,21,12,25
3181,27,-14,36,13,-1,19,14,29
3182,28,-10,35,14,2,17,16,33
3183,28,-7,35,15,5,14,17,35
3184,28,-5,35,16,7,11,18,37
3185,27,-5,36,15,8,10,17,37
3186,26,-6,37,14,9,9,16,37
3187,25,-6,37,12,10,10,15,37
3188,24,-7,38,10,9,13,13,36
3189,24,-8,39,8,8,17,12,34
3190,24,-10,40,6,6,21,10,32
3191,23,-11,41,3,4,24,8,29
3192,22,-12,42,1,3,26,6,28
3193,20,-11,42,-1,2,26,4,28
3194,19,-9,40,-2,2,25,3,30
3195,19,-7,36,-3,1,24,2,31
3196,19,-5,32,-2,0,22,1,32
3197,20,-5,27,-1,-2,19,2,32
3198,21,-5,24,1,-2,17,3,31
3199,22,-5,23,4,-2,14,5,32
3200,23,-4,26,6,0,12,7,33
3201,23,-4,29,9,2,12,9,35
3202,24,-3,32,10,4,14,11,38
3203,25,-2,35,11,7,17,12,40
3204,25,-3,38,11,9,20,13,41
3205,26,-3,41,10,11,22,13,42
3206,26,-3,43,9,12,24,13,43
3207,26,-1,44,8,13,25,12,45
3208,25,2,42,7,13,23,11,47
3209,24,4,41,6,14,21,10,49
3210,23,4,39,6,13,20,9,49
3211,22,3,38,5,12,21,8,47
3212,21,1,38,5,11,22,8,45
3213,20,-3,37,5,8,25,8,40
3214,20,-5,37,5,5,29,8,37
3215,19,-5,34,4,3,31,8,34
3216,19,-4,32,4,3,30,7,33
3217,19,-3,31,3,4,26,6,32
3218,19,-4,31,3,5,22,6,30
3219,19,-4,30,4,6,17,6,28
3220,19,-4,27,4,7,12,5,27
3221,19,-3,23,5,8,7,5,28
3222,18,-1,19,5,8,5,5,30
3223,16,2,16,5,7,5,4,33
3224,15,4,13,4,6,5,4,37
3225,13,7,12,3,5,7,3,40
3226,12,8,12,3,5,8,2,43
3227,11,9,14,2,5,11,2,45
3228,11,10,17,2,6,14,3,47
3229,12,10,20,3,8,17,4,48
3230,13,10,24,4,10,18,6,48
3231,14,9,27,4,13,17,7,48
3232,14,7,29,5,15,16,8,48
3233,14,5,30,5,17,16,8,47
3234,12,3,30,5,18,17,8,45
3235,11,2,31,5,20,17,8,43
3236,10,1,33,4,22,17,8,42
3237,9,2,34,3,25,16,9,41
3238,9,4,33,2,29,13,9,40
3239,9,6,32,1,32,11,10,40
3240,10,8,32,1,32,11,10,40
3241,10,9,31,1,30,13,10,38
3242,11,10,28,0,25,17,10,36
3243,11,11,24,-1,22,18,10,34
3244,12,13,19,-1,20,15,11,34
3245,13,16,15,-1,20,10,12,35
3246,14,18,11,0,20,7,13,36
3247,16,18,10,1,19,5,14,37
3248,17,19,10,1,18,3,16,37
3249,18,20,7,3,17,2,18,37
3250,18,21,5,4,17,1,19,37
3251,18,20,3,4,16,0,19,36
3252,18,17,3,5,17,-1,19,34
3253,17,12,5,4,17,-1,19,32
3254,16,6,8,3,18,0,18,28
3255,14,0,12,2,18,2,17,25
3256,13,-3,13,1,18,3,17,23
3257,12,-4,13,1,18,4,16,22
3258,12,-3,13,0,16,5,15,21
3259,11,-2,16,-1,13,8,13,20
3260,10,-2,19,-1,9,12,12,18
3261,9,-1,23,-2,5,16,10,16
3262,8,-1,26,-3,3,19,9,14
3263,7,1,27,-3,2,20,9,13
3264,7,2,27,-2,2,21,9,12
3265,7,4,24,-2,2,22,10,13
3266,8,7,20,-1,3,21,11,14
3267,9,9,13,1,4,18,13,16
3268,10,12,7,3,5,12,14,18
3269,10,13,2,5,7,6,15,20
3270,11,12,-1,6,8,1,16,20
3271,11,10,0,6,9,-1,16,19
3272,11,8,3,5,10,0,15,18
3273,11,6,7,4,10,3,14,17
3274,11,5,11,3,12,6,14,16
3275,11,6,11,2,14,6,14,17
3276,11,7,8,2,18,3,14,19
3277,10,8,5,2,21,-1,14,20
3278,8,8,2,1,23,-2,13,19
3279,6,8,2,-1,21,0,10,17
3280,4,6,5,-3,18,4,7,14
3281,2,2,10,-5,12,10,5,9
3282,1,-2,14,-7,7,14,4,5
3283,1,-6,18,-7,3,17,4,0
3284,1,-8,19,-7,-1,19,5,-3
3285,2,-9,18,-6,-3,18,6,-6
3286,2,-9,16,-5,-4,17,6,-9
3287,2,-8,15,-5,-4,14,7,-10
3288,3,-5,12,-5,-3,11,7,-9
3289,3,-2,8,-4,-1,7,7,-7
3290,3,2,3,-3,2,2,8,-4
3291,3,4,-2,-2,4,-2,8,-1
3292,2,5,-7,-2,5,-5,7,2
3293,1,4,-13,-1,5,-8,7,3
3294,0,3,-17,-2,3,-10,6,2
3295,-1,2,-21,-2,0,-11,5,1
3296,-2,2,-23,-3,-3,-11,4,1
3297,-3,2,-25,-3,-5,-11,3,0
3298,-3,3,-25,-4,-7,-10,2,-1
3299,-4,3,-24,-5,-8,-8,0,-2
3300,-4,2,-21,-6,-8,-7,-1,-3
3301,-5,2,-18,-7,-7,-9,-2,-3
3302,-5,2,-16,-7,-4,-11,-3,-2
3303,-6,3,-14,-7,-2,-13,-4,-1
3304,-6,5,-12,-7,1,-14,-4,0
3305,-7,7,-11,-7,3,-14,-5,1
3306,-7,7,-11,-6,5,-13,-5,1
3307,-7,6,-11,-7,6,-12,-6,0
3308,-6,3,-10,-7,6,-10,-6,-2
3309,-6,1,-9,-7,5,-9,-5,-4
3310,-5,-2,-8,-8,2,-7,-3,-7
3311,-4,-5,-8,-8,-3,-4,-1,-11
3312,-3,-7,-5,-8,-9,1,1,-16
3313,-1,-10,-2,-7,-14,5,3,-21
3314,0,-12,1,-6,-17,6,4,-24
3315,2,-12,1,-5,-19,4,4,-24
3316,4,-11,-1,-4,-18,1,5,-23
3317,6,-8,-6,-3,-18,-2,6,-21
3318,7,-4,-12,-2,-18,-5,7,-18
3319,9,-2,-16,-1,-17,-7,8,-15
3320,10,-2,-15,-1,-18,-8,8,-14
3321,10,-4,-11,-1,-19,-7,8,-16
3322,10,-5,-6,-1,-20,-6,8,-17
3323,9,-6,-3,-2,-20,-6,7,-18
3324,7,-6,-1,-2,-18,-6,6,-18
3325,6,-6,1,-1,-17,-5,4,-17
3326,4,-6,2,-1,-16,-3,3,-16
3327,2,-5,3,-1,-15,-1,1,-14
3328,1,-5,4,-1,-15,0,-1,-13
3329,0,-4,4,-1,-14,-1,-2,-13
3330,0,-3,4,-2,-12,-3,-2,-12
3331,0,-3,3,-2,-10,-6,-1,-12
3332,1,-5,4,-3,-8,-7,0,-14
3333,2,-7,4,-3,-8,-5,1,-17
3334,3,-7,4,-3,-10,-1,2,-19
3335,5,-6,0,-3,-13,5,4,-20
3336,7,-2,-5,-3,-16,8,6,-19
3337,9,2,-10,-3,-16,7,7,-18
3338,9,5,-16,-3,-15,2,8,-16
3339,9,6,-19,-2,-13,-3,9,-15
3340,9,6,-20,-2,-11,-8,9,-16
3341,8,5,-19,-1,-11,-11,9,-18
3342,7,5,-18,0,-12,-10,9,-20
3343,7,6,-17,1,-14,-8,9,-20
3344,6,7,-17,2,-16,-6,8,-20
3345,6,8,-18,3,-16,-6,8,-19
3346,5,9,-19,4,-16,-9,8,-17
3347,5,10,-19,4,-14,-12,8,-14
3348,6,13,-20,5,-12,-14,9,-10
3349,7,15,-20,6,-10,-15,10,-7
3350,9,16,-20,6,-8,-15,10,-4
3351,10,17,-19,6,-6,-14,11,-1
3352,11,16,-17,6,-4,-12,11,0
3353,11,15,-15,5,-3,-9,11,1
3354,10,15,-13,4,-2,-6,10,0
3355,8,14,-11,3,-2,-3,9,-2
3356,7,13,-8,2,-3,0,7,-4
3357,5,11,-7,1,-3,1,5,-6
3358,4,12,-10,0,-1,0,4,-7
3359,3,15,-17,0,1,-3,3,-6
3360,2,18,-24,0,4,-7,3,-5
3361,2,21,-30,1,6,-11,4,-4
3362,3,21,-35,2,7,-16,5,-5
3363,3,18,-34,1,7,-18,5,-7
3364,2,12,-29,1,4,-18,5,-12
3365,1,5,-22,-1,-1,-17,4,-17
3366,0,0,-18,-2,-6,-15,2,-22
3367,-1,-4,-16,-3,-11,-13,1,-25
3368,-1,-7,-15,-4,-15,-11,-1,-28
3369,-1,-11,-13,-4,-18,-9,-1,-29
3370,0,-13,-12,-3,-19,-7,0,-29
3371,2,-15,-11,-2,-20,-7,2,-28
3372,3,-16,-11,0,-20,-8,3,-27
3373,3,-17,-13,1,-20,-10,4,-27
3374,4,-17,-14,3,-21,-11,4,-27
3375,5,-17,-16,3,-22,-11,5,-27
3376,6,-15,-16,4,-23,-10,5,-27
3377,6,-14,-14,4,-21,-7,5,-26
3378,5,-13,-10,4,-18,-3,5,-24
3379,4,-12,-6,3,-14,0,4,-22
3380,3,-8,-4,2,-8,2,2,-18
3381,2,-4,-4,1,-3,2,1,-13
3382,2,1,-6,1,2,2,0,-9
3383,1,6,-8,0,5,2,-1,-7
3384,1,8,-8,-1,5,3,-2,-8
3385,1,8,-8,-2,3,6,-3,-11
3386,0,7,-6,-3,-1,9,-3,-16
3387,-1,7,-6,-3,-5,10,-3,-19
3388,-1,10,-9,-3,-8,8,-3,-20
3389,0,12,-14,-1,-9,3,-2,-19
3390,1,15,-19,1,-10,-2,-1,-17
3391,2,16,-21,4,-10,-7,0,-16
3392,3,15,-22,7,-10,-9,2,-16
3393,4,14,-22,10,-11,-11,4,-17
3394,6,13,-23,12,-12,-12,6,-17
3395,7,13,-24,13,-13,-12,8,-17
3396,7,12,-25,13,-14,-12,10,-18
3397,7,9,-25,12,-13,-13,10,-20
3398,7,6,-24,10,-9,-16,10,-21
3399,6,4,-24,8,-4,-20,10,-20
3400,5,2,-25,6,1,-23,9,-20
3401,4,1,-26,4,6,-24,7,-20
3402,2,0,-26,2,7,-21,5,-21
3403,-1,-1,-26,-1,7,-16,2,-23
3404,-4,-2,-27,-3,5,-10,-2,-26
3405,-7,-3,-26,-5,2,-6,-5,-29
3406,-9,-4,-26,-6,-1,-5,-8,-31
3407,-11,-3,-25,-6,-3,-6,-10,-31
3408,-12,-1,-25,-5,-5,-7,-10,-30
3409,-12,2,-25,-3,-7,-7,-10,-30
3410,-12,4,-25,-2,-10,-6,-9,-29
3411,-11,6,-26,0,-14,-5,-9,-29
3412,-10,6,-26,2,-17,-5,-8,-30
3413,-8,4,-26,3,-20,-6,-7,-31
3414,-6,0,-27,5,-23,-8,-6,-33
3415,-3,-4,-30,6,-25,-11,-4,-35
3416,0,-8,-34,6,-27,-14,-1,-36
3417,3,-12,-37,7,-30,-16,1,-37
3418,5,-16,-39,6,-33,-17,3,-39
3419,6,-18,-38,6,-34,-20,5,-41
3420,6,-21,-36,5,-34,-22,6,-43
3421,5,-22,-33,5,-32,-24,5,-44
3422,3,-20,-31,4,-28,-24,4,-45
3423,0,-17,-30,2,-24,-21,1,-44
3424,-3,-11,-28,0,-20,-16,-3,-41
3425,-7,-5,-26,-2,-15,-12,-6,-38
3426,-10,1,-23,-4,-11,-10,-10,-34
3427,-12,6,-20,-6,-9,-9,-13,-31
3428,-14,8,-17,-6,-7,-9,-15,-29
3429,-16,8,-13,-7,-7,-6,-17,-29
3430,-17,7,-9,-7,-10,-3,-18,-31
3431,-18,4,-8,-7,-13,1,-18,-33
3432,-17,1,-8,-6,-16,2,-17,-36
3433,-14,-2,-8,-4,-18,1,-15,-38
3434,-12,-4,-10,-2,-20,0,-12,-38
3435,-9,-4,-11,0,-21,0,-9,-38
3436,-6,-3,-13,2,-22,0,-6,-38
3437,-4,-2,-14,5,-22,-2,-2,-38
3438,-2,-1,-17,7,-21,-4,2,-37
3439,0,0,-20,9,-20,-8,5,-36
3440,2,0,-23,11,-18,-11,7,-36
3441,3,0,-25,12,-17,-13,8,-36
3442,3,0,-28,12,-16,-14,9,-35
3443,2,2,-31,11,-15,-14,8,-34
3444,0,3,-32,9,-15,-15,7,-34
3445,-3,3,-31,6,-14,-17,5,-34
3446,-7,4,-28,4,-12,-17,2,-34
3447,-12,4,-24,2,-11,-17,-2,-35
3448,-16,4,-21,0,-10,-15,-5,-36
3449,-19,4,-18,-1,-10,-14,-7,-36
3450,-21,6,-19,-2,-9,-13,-8,-34
3451,-22,7,-22,-2,-9,-13,-9,-32
3452,-22,8,-24,-2,-9,-14,-9,-30
3453,-23,7,-25,-3,-10,-15,-9,-30
3454,-23,5,-24,-3,-12,-14,-9,-31
3455,-23,4,-21,-4,-15,-11,-9,-33
3456,-23,4,-17,-4,-18,-8,-9,-35
3457,-22,5,-15,-3,-19,-7,-8,-35
3458,-21,8,-14,-2,-17,-7,-7,-33
3459,-20,10,-15,-2,-14,-8,-6,-30
3460,-18,12,-17,-2,-11,-10,-6,-27
3461,-17,14,-19,-2,-9,-11,-5,-26
3462,-16,14,-21,-2,-8,-11,-5,-26
3463,-15,14,-22,-2,-10,-10,-4,-26
3464,-15,14,-21,-3,-11,-7,-4,-27
3465,-15,13,-19,-3,-13,-4,-5,-28
3466,-15,12,-16,-3,-15,1,-6,-30
3467,-15,12,-15,-4,-16,4,-7,-31
3468,-15,13,-16,-4,-16,4,-7,-31
3469,-15,13,-19,-4,-15,2,-7,-30
3470,-16,11,-20,-5,-14,-2,-8,-31
3471,-18,8,-20,-6,-13,-4,-9,-33
3472,-20,5,-18,-7,-12,-7,-11,-34
3473,-22,2,-17,-7,-11,-9,-12,-35
3474,-23,1,-15,-8,-11,-9,-13,-37
3475,-24,-1,-13,-8,-13,-7,-14,-38
3476,-24,-2,-13,-7,-14,-6,-14,-39
3477,-23,-2,-12,-6,-17,-5,-14,-40
3478,-22,-3,-12,-5,-19,-6,-13,-40
3479,-21,-3,-12,-5,-21,-7,-12,-40
3480,-19,-2,-14,-4,-22,-10,-11,-38
3481,-18,1,-17,-3,-22,-12,-9,-35
3482,-17,5,-19,-2,-22,-12,-8,-33
3483,-16,8,-19,-1,-22,-11,-6,-32
3484,-14,11,-19,-1,-22,-8,-4,-31
3485,-13,14,-19,-1,-21,-6,-2,-31
3486,-12,16,-20,-1,-20,-6,-1,-29
3487,-12,17,-20,-1,-17,-7,0,-28
3488,-11,16,-19,-1,-14,-10,1,-27
3489,-11,14,-19,-2,-12,-13,1,-27
3490,-10,12,-19,-2,-10,-17,1,-27
3491,-10,10,-18,-2,-9,-19,-1,-27
3492,-10,6,-16,-3,-10,-19,-2,-30
3493,-10,2,-14,-3,-11,-16,-4,-33
3494,-10,-3,-12,-4,-13,-11,-5,-36
3495,-10,-6,-10,-4,-16,-7,-5,-39
3496,-10,-9,-10,-4,-17,-4,-6,-41
3497,-10,-10,-12,-4,-19,-3,-6,-42
3498,-10,-9,-15,-3,-19,-3,-6,-42
3499,-10,-6,-19,-3,-18,-6,-5,-39
3500,-10,-2,-23,-2,-17,-10,-5,-35
3501,-9,0,-25,-1,-16,-13,-4,-33
3502,-9,1,-25,0,-16,-15,-4,-32
3503,-8,1,-22,1,-17,-15,-4,-32
3504,-8,0,-19,1,-17,-13,-5,-33
3505,-8,-1,-18,1,-18,-10,-5,-34
3506,-8,0,-18,0,-19,-9,-6,-35
3507,-9,1,-19,0,-19,-8,-7,-35
3508,-10,2,-20,-1,-20,-8,-7,-35
3509,-11,2,-22,-2,-21,-8,-8,-35
3510,-12,1,-22,-3,-21,-9,-8,-36
3511,-14,-2,-21,-4,-20,-10,-9,-37
3512,-15,-5,-20,-5,-19,-12,-8,-36
3513,-15,-8,-21,-5,-20,-15,-8,-35
3514,-14,-11,-22,-5,-21,-17,-7,-33
3515,-13,-14,-22,-5,-23,-17,-7,-32
3516,-13,-17,-21,-4,-26,-15,-7,-32
3517,-12,-19,-20,-3,-30,-13,-7,-33
3518,-12,-21,-18,-2,-32,-11,-6,-34
3519,-13,-21,-18,-1,-35,-9,-5,-35
3520,-13,-20,-18,-1,-36,-7,-4,-35
3521,-14,-19,-18,0,-36,-6,-3,-36
3522,-14,-17,-18,1,-35,-7,-3,-36
3523,-13,-16,-20,1,-33,-8,-4,-36
3524,-13,-15,-21,1,-31,-10,-6,-36
3525,-12,-14,-22,1,-28,-12,-7,-36
3526,-12,-12,-22,1,-24,-14,-8,-36
3527,-12,-8,-24,1,-19,-20,-8,-34
3528,-13,-4,-27,1,-13,-24,-8,-32
3529,-14,1,-29,1,-9,-26,-7,-31
3530,-15,5,-29,0,-8,-24,-8,-30
3531,-15,8,-28,-1,-9,-21,-8,-29
3532,-15,9,-27,-2,-10,-19,-9,-29
3533,-15,8,-25,-4,-13,-17,-10,-30
3534,-15,5,-24,-6,-16,-16,-11,-33
3535,-15,-1,-23,-7,-19,-16,-13,-37
3536,-16,-8,-19,-8,-23,-14,-14,-42
3537,-17,-15,-15,-9,-27,-11,-14,-47
3538,-17,-20,-12,-9,-31,-7,-14,-51
3539,-18,-21,-13,-9,-33,-6,-14,-52
3540,-17,-20,-16,-9,-33,-6,-13,-52
3541,-17,-18,-20,-8,-32,-7,-12,-50
3542,-17,-16,-21,-7,-30,-8,-12,-48
3543,-17,-14,-21,-6,-27,-9,-12,-45
3544,-17,-13,-19,-4,-24,-10,-11,-42
3545,-17,-11,-17,-3,-21,-12,-11,-39
3546,-16,-8,-19,-1,-17,-14,-10,-35
3547,-14,-5,-23,0,-13,-18,-8,-31
3548,-13,-2,-27,2,-10,-22,-6,-27
3549,-12,-1,-30,3,-6,-25,-5,-25
3550,-11,1,-33,4,-4,-26,-4,-24
3551,-11,3,-36,4,-4,-26,-4,-23
3552,-12,4,-38,3,-5,-24,-4,-25
3553,-13,4,-37,2,-8,-21,-5,-27
3554,-15,3,-34,0,-10,-18,-7,-30
3555,-16,2,-30,-2,-12,-16,-8,-32
3556,-17,1,-25,-4,-14,-14,-9,-33
3557,-17,0,-21,-5,-16,-14,-10,-33
3558,-17,-2,-19,-6,-18,-12,-10,-34
3559,-16,-3,-20,-6,-21,-9,-10,-35
3560,-15,-4,-24,-6,-23,-8,-10,-36
3561,-14,-4,-31,-5,-24,-10,-9,-35
3562,-14,-4,-35,-4,-23,-13,-8,-34
3563,-14,-4,-36,-4,-21,-15,-8,-34
3564,-15,-4,-36,-3,-20,-16,-8,-33
3565,-16,-3,-35,-3,-19,-16,-9,-31
3566,-16,-2,-34,-2,-18,-14,-9,-30
3567,-17,0,-35,-2,-18,-12,-9,-28
3568,-16,2,-38,-1,-17,-12,-8,-26
3569,-14,6,-42,1,-15,-13,-7,-23
3570,-13,9,-43,3,-14,-16,-5,-20
3571,-13,10,-42,5,-15,-18,-4,-19
3572,-12,12,-40,6,-15,-20,-3,-18
3573,-12,14,-40,7,-15,-23,-3,-17
3574,-12,13,-41,7,-15,-25,-2,-18
3575,-12,10,-39,7,-15,-27,-2,-21
3576,-12,6,-35,7,-14,-28,-1,-24
3577,-12,3,-32,6,-14,-29,-1,-25
3578,-13,1,-28,6,-13,-27,-1,-25
3579,-14,0,-26,6,-13,-24,-2,-24
3580,-15,0,-25,6,-14,-21,-3,-23
3581,-16,-1,-24,6,-17,-18,-4,-21
3582,-15,-1,-24,7,-20,-16,-5,-20
3583,-14,-2,-25,7,-23,-15,-5,-19
3584,-13,-3,-26,6,-25,-15,-5,-18
3585,-12,-4,-26,5,-26,-14,-5,-19
3586,-11,-5,-26,4,-27,-12,-5,-20
3587,-10,-5,-26,3,-26,-10,-4,-21
3588,-10,-4,-27,4,-26,-10,-4,-21
3589,-11,-2,-27,5,-23,-12,-4,-21
3590,-11,1,-27,5,-19,-17,-5,-20
3591,-12,1,-27,5,-15,-22,-6,-19
3592,-11,0,-29,4,-12,-26,-7,-19
3593,-9,-4,-31,3,-12,-27,-7,-21
3594,-7,-7,-33,3,-15,-26,-8,-24
3595,-5,-9,-35,2,-18,-23,-8,-25
3596,-4,-8,-36,2,-20,-20,-8,-25
3597,-5,-5,-34,2,-21,-18,-8,-24
3598,-8,-3,-29,2,-21,-17,-8,-24
3599,-11,-3,-24,3,-22,-15,-9,-23
3600,-11,-4,-21,3,-22,-13,-9,-23
3601,-10,-5,-22,3,-22,-12,-9,-23
3602,-9,-5,-23,3,-21,-11,-9,-23
3603,-8,-6,-23,3,-20,-10,-8,-23
3604,-8,-5,-22,4,-18,-9,-8,-23
3605,-10,-5,-20,4,-17,-8,-8,-22
3606,-12,-4,-18,4,-16,-7,-9,-22
3607,-13,-4,-16,3,-14,-7,-10,-21
3608,-13,-5,-14,1,-14,-6,-10,-21
3609,-13,-5,-15,-1,-14,-6,-11,-20
3610,-12,-3,-17,-1,-15,-6,-11,-20
3611,-12,-1,-19,-1,-16,-5,-11,-19
3612,-11,3,-21,1,-16,-4,-10,-17
3613,-11,8,-24,2,-15,-3,-9,-15
3614,-11,12,-26,2,-14,-3,-7,-13
3615,-12,13,-28,2,-14,-5,-6,-13
3616,-12,11,-29,2,-14,-7,-6,-14
3617,-11,7,-29,1,-16,-8,-6,-16
3618,-10,4,-29,1,-17,-8,-7,-19
3619,-9,3,-31,0,-18,-9,-8,-20
3620,-9,4,-34,0,-16,-11,-8,-19
3621,-9,6,-36,1,-13,-15,-8,-17
3622,-10,7,-39,2,-10,-21,-8,-15
3623,-10,7,-40,3,-8,-26,-8,-12
3624,-10,6,-37,3,-5,-28,-8,-10
3625,-9,5,-30,3,-3,-24,-7,-9
3626,-8,3,-21,2,-2,-16,-7,-9
3627,-7,1,-13,1,-3,-8,-6,-9
3628,-7,-2,-6,1,-4,-2,-5,-10
3629,-7,-4,-3,0,-6,1,-5,-11
3630,-7,-5,-3,0,-9,2,-5,-12
3631,-8,-5,-6,0,-11,1,-6,-12
3632,-8,-5,-11,-1,-13,0,-7,-12
3633,-8,-6,-15,-2,-16,0,-8,-14
3634,-8,-8,-17,-3,-18,1,-9,-16
3635,-8,-11,-18,-4,-17,1,-10,-18
3636,-8,-15,-17,-4,-16,-1,-11,-20
3637,-8,-17,-15,-4,-14,0,-11,-21
3638,-8,-16,-13,-3,-12,0,-11,-20
3639,-7,-10,-12,-2,-9,0,-10,-16
3640,-6,-5,-13,-1,-5,1,-9,-13
3641,-6,-2,-14,-1,-3,1,-8,-9
3642,-6,0,-17,-1,0,-2,-7,-6
3643,-6,1,-21,-1,3,-7,-7,-3
3644,-6,1,-22,-1,4,-10,-7,-2
3645,-6,1,-20,-1,3,-9,-8,-3
3646,-7,0,-17,-1,1,-7,-9,-5
3647,-7,-2,-12,-1,-1,-5,-10,-7
3648,-8,-5,-8,-1,-2,-3,-10,-10
3649,-9,-7,-4,-1,-4,-1,-10,-12
3650,-9,-10,-2,-1,-8,0,-11,-14
3651,-8,-13,-3,-1,-12,-1,-11,-17
3652,-7,-17,-6,-1,-17,-2,-12,-20
3653,-6,-21,-8,-1,-21,-3,-13,-24
3654,-6,-25,-9,-2,-24,-4,-14,-27
3655,-6,-27,-9,-2,-24,-5,-15,-27
3656,-7,-26,-8,-1,-23,-7,-15,-25
3657,-9,-24,-7,1,-20,-8,-15,-21
3658,-10,-21,-6,2,-18,-8,-14,-19
3659,-10,-19,-7,3,-16,-7,-13,-16
3660,-11,-14,-11,2,-13,-8,-12,-13
3661,-10,-9,-16,2,-9,-8,-11,-10
3662,-10,-4,-18,1,-5,-9,-10,-6
3663,-9,-1,-20,1,-2,-10,-9,-2
3664,-8,0,-22,1,-1,-11,-9,0
3665,-6,-3,-21,1,0,-11,-8,-1
3666,-6,-8,-17,1,-1,-9,-7,-4
3667,-6,-12,-13,0,-4,-4,-7,-8
3668,-7,-13,-11,0,-9,0,-6,-12
3669,-8,-12,-13,1,-13,1,-6,-15
3670,-8,-11,-15,2,-15,1,-5,-16
3671,-7,-10,-17,3,-15,-1,-4,-16
3672,-7,-9,-19,4,-14,-4,-4,-16
3673,-7,-9,-19,4,-12,-6,-4,-16
3674,-7,-9,-17,3,-11,-9,-4,-15
3675,-7,-8,-15,3,-8,-10,-5,-14
3676,-7,-8,-13,3,-6,-11,-5,-13
3677,-7,-8,-11,2,-4,-12,-6,-12
3678,-6,-9,-9,2,-2,-10,-6,-12
3679,-6,-10,-6,2,-3,-8,-6,-13
3680,-5,-11,-5,2,-6,-4,-5,-14
3681,-4,-11,-6,2,-9,-1,-5,-14
3682,-2,-9,-8,4,-10,-1,-5,-12
3683,-1,-7,-11,6,-7,-3,-5,-10
3684,-1,-5,-15,7,-3,-6,-5,-7
3685,-2,-4,-20,6,1,-10,-6,-6
3686,-3,-4,-24,5,1,-13,-6,-7
3687,-4,-5,-25,3,-2,-14,-7,-9
3688,-4,-5,-22,2,-5,-12,-6,-10
3689,-5,-3,-17,3,-6,-9,-6,-8
3690,-5,1,-10,4,-6,-5,-5,-5
3691,-5,3,-5,5,-4,-3,-4,-3
3692,-6,3,-4,5,-3,-1,-4,-2
3693,-6,1,-5,3,-4,1,-4,-5
3694,-7,-2,-7,1,-7,2,-4,-8
3695,-8,-3,-8,1,-8,4,-4,-9
3696,-8,-1,-9,2,-7,5,-4,-7
3697,-8,2,-12,3,-5,5,-3,-5
3698,-7,5,-16,3,-4,3,-3,-2
3699,-7,6,-20,3,-4,-1,-3,-1
3700,-7,5,-20,2,-4,-4,-4,-1
3701,-7,3,-18,2,-3,-6,-4,-2
3702,-8,4,-15,1,-2,-4,-4,-1
3703,-9,6,-12,1,-3,1,-3,0
3704,-10,6,-11,1,-5,7,-4,-1
3705,-10,5,-12,1,-9,11,-4,-3
3706,-11,4,-15,0,-11,10,-5,-5
3707,-11,2,-19,0,-12,6,-5,-6
3708,-11,1,-22,1,-11,1,-5,-6
3709,-11,1,-24,1,-8,-5,-4,-5
3710,-10,1,-25,2,-5,-8,-3,-4
3711,-9,-1,-23,3,-5,-10,-3,-6
3712,-8,-3,-19,4,-7,-10,-3,-9
3713,-7,-4,-14,4,-8,-8,-2,-10
3714,-7,-3,-9,4,-6,-6,-2,-8
3715,-6,-1,-6,4,-4,-3,-2,-5
3716,-6,-1,-5,4,-3,0,-3,-3
3717,-5,-2,-5,4,-3,3,-4,-2
3718,-5,-5,-6,3,-4,5,-4,-4
3719,-5,-8,-7,2,-7,4,-4,-7
3720,-4,-8,-9,1,-10,5,-4,-7
3721,-4,-5,-10,0,-11,6,-3,-5
3722,-4,-2,-11,0,-11,7,-3,-1
3723,-4,2,-11,2,-10,8,-3,3
3724,-4,3,-10,3,-10,8,-3,5
3725,-4,2,-8,3,-10,8,-4,4
3726,-4,-1,-5,3,-10,7,-5,3
3727,-4,-1,-1,3,-9,7,-6,3
3728,-3,-1,3,3,-7,8,-6,5
3729,-3,0,4,3,-5,10,-6,6
3730,-4,-1,4,4,-6,10,-6,5
3731,-6,-4,3,4,-9,10,-6,2
3732,-6,-9,4,4,-12,11,-6,-3
3733,-7,-13,5,4,-14,12,-5,-6
3734,-8,-17,5,4,-15,14,-6,-8
3735,-9,-19,3,4,-14,14,-6,-8
3736,-10,-16,1,4,-12,12,-6,-6
3737,-10,-9,-1,4,-10,10,-6,-2
3738,-10,-2,-3,4,-8,6,-5,2
3739,-9,2,-6,3,-5,1,-3,4
3740,-8,2,-9,3,-4,-2,-2,5
3741,-7,0,-11,2,-4,-1,-1,4
3742,-7,-4,-12,0,-7,1,-2,1
3743,-8,-7,-12,-2,-10,4,-3,-3
3744,-9,-9,-9,-3,-12,8,-4,-5
3745,-9,-8,-5,-3,-14,13,-5,-6
3746,-10,-8,-1,-2,-16,16,-5,-6
3747,-11,-7,1,-1,-17,18,-5,-6
3748,-12,-7,2,0,-17,18,-4,-7
3749,-13,-7,3,1,-19,18,-3,-8
3750,-13,-8,3,1,-20,17,-3,-10
3751,-13,-9,3,1,-21,15,-3,-11
3752,-12,-11,3,1,-21,13,-3,-12
3753,-12,-13,4,1,-21,11,-4,-12
3754,-12,-13,5,0,-19,10,-5,-12
3755,-13,-14,5,-1,-17,10,-5,-11
3756,-13,-14,4,-2,-15,9,-6,-10
3757,-14,-15,2,-2,-14,9,-6,-10
3758,-13,-15,0,-1,-15,8,-6,-11
3759,-13,-13,0,0,-17,8,-5,-10
3760,-11,-8,2,1,-16,8,-4,-8
3761,-9,-3,3,3,-13,7,-2,-4
3762,-7,2,2,4,-8,6,-1,1
3763,-5,4,-1,4,-3,4,1,4
3764,-5,4,-5,5,0,2,2,5
3765,-5,1,-7,5,1,2,2,3
3766,-5,-2,-8,4,0,3,1,0
3767,-5,-4,-6,4,-3,5,1,-2
3768,-5,-6,-3,4,-5,8,1,-2
3769,-4,-6,1,3,-6,9,1,-2
3770,-4,-6,4,3,-6,11,1,-2
3771,-5,-7,8,3,-7,13,1,-2
3772,-7,-8,11,3,-8,15,0,-4
3773,-8,-10,14,2,-9,18,-2,-6
3774,-8,-12,17,1,-11,20,-3,-9
3775,-8,-14,18,0,-11,22,-3,-11
3776,-7,-15,18,0,-11,22,-3,-13
3777,-6,-14,17,1,-10,21,-2,-13
3778,-7,-10,15,2,-8,19,-2,-11
3779,-7,-7,11,4,-7,17,-1,-10
3780,-6,-6,8,4,-6,15,-1,-9
3781,-5,-6,7,4,-3,14,-1,-7
3782,-4,-4,6,4,0,13,-1,-3
3783,-3,-1,5,4,4,12,-2,1
3784,-2,3,4,3,5,12,-2,5
3785,-3,7,3,4,6,13,-3,9
3786,-2,9,2,4,6,12,-3,12
3787,-2,7,2,5,7,7,-3,13
3788,-2,3,4,5,8,0,-2,13
3789,-2,-1,5,6,9,-5,-2,13
3790,-2,-3,5,6,10,-9,-1,13
3791,-2,-4,4,5,8,-10,-2,11
3792,-2,-6,5,4,3,-5,-2,9
3793,-1,-7,7,2,-1,3,-2,6
3794,0,-8,7,1,-4,7,-2,6
3795,1,-7,5,0,-2,6,-2,8
3796,1,-4,0,-1,1,2,-2,10
3797,1,-2,-4,-1,3,-1,-2,13
3798,1,0,-6,-1,3,-2,-2,13
3799,1,0,-5,-1,2,-1,-2,11
3800,1,1,-4,-1,1,3,-2,9
3801,2,1,-4,0,0,5,-3,7
3802,1,1,-4,2,0,5,-3,6
3803,0,1,-4,3,1,4,-3,6
3804,0,-1,-1,4,2,3,-3,5
3805,-1,-4,2,4,2,3,-3,4
3806,-2,-7,5,4,2,2,-3,2
3807,-3,-9,6,4,1,2,-3,1
3808,-3,-11,6,2,1,2,-4,1
3809,-3,-13,6,1,-1,1,-5,0
3810,-2,-16,6,-1,-3,-1,-6,-1
3811,-2,-18,8,-3,-5,-2,-6,-2
3812,-2,-19,10,-4,-6,0,-6,-3
3813,-2,-20,12,-4,-8,5,-6,-4
3814,-3,-20,14,-4,-11,9,-5,-5
3815,-4,-18,15,-3,-12,12,-4,-5
3816,-5,-16,13,-3,-12,11,-4,-4
3817,-5,-14,9,-2,-11,7,-3,-1
3818,-4,-12,4,-2,-9,3,-3,3
3819,-3,-10,0,-2,-8,1,-3,5
3820,-2,-8,-1,-3,-9,4,-3,7
3821,-2,-6,-1,-4,-10,8,-4,8
3822,-2,-4,-1,-5,-10,10,-5,9
3823,-2,-2,-1,-6,-8,10,-6,11
3824,-2,0,-1,-5,-5,8,-7,13
3825,-3,1,-1,-4,-3,8,-7,13
3826,-3,0,2,-3,-3,11,-6,10
3827,-4,-3,5,-1,-5,15,-5,6
3828,-3,-5,7,1,-6,16,-4,3
3829,-3,-6,6,3,-5,11,-3,1
3830,-2,-5,2,4,-4,4,-2,1
3831,-2,-4,-3,5,-2,-3,-2,2
3832,-2,-3,-5,6,-2,-8,-2,3
3833,-2,-3,-7,6,-3,-10,-1,3
3834,-2,-4,-7,6,-4,-9,-1,3
3835,-2,-5,-6,5,-4,-6,0,3
3836,-2,-7,-2,4,-3,-3,0,2
3837,-3,-9,3,3,-2,1,0,2
3838,-4,-11,6,2,-1,3,0,2
3839,-5,-12,7,1,1,4,-1,3
3840,-6,-13,9,0,1,3,-2,3
3841,-7,-14,9,-1,1,1,-3,3
3842,-7,-14,9,-1,2,-2,-4,4
3843,-7,-13,7,-2,2,-3,-6,5
3844,-7,-13,5,-3,1,-1,-6,5
3845,-7,-12,3,-4,-2,3,-6,6
3846,-6,-11,1,-4,-4,6,-5,7
3847,-4,-10,0,-4,-7,8,-3,8
3848,-2,-9,2,-3,-10,12,-2,9
3849,0,-7,5,-1,-11,16,-1,10
3850,2,-5,6,1,-10,19,1,13
3851,4,-2,6,3,-7,19,2,16
3852,5,-1,4,5,-2,18,3,17
3853,6,-2,2,7,3,16,4,16
3854,6,-5,3,7,6,14,4,13
3855,5,-7,5,7,10,12,3,10
3856,4,-8,7,7,13,11,3,8
3857,3,-8,10,7,15,12,3,6
3858,3,-6,14,7,15,14,3,5
3859,2,-4,18,7,15,16,3,4
3860,3,-3,22,7,14,19,3,3
3861,3,-2,25,7,13,23,4,2
3862,4,-2,27,6,13,27,3,2
3863,5,-2,27,6,14,28,3,3
3864,5,-1,25,5,17,25,3,5
3865,6,1,21,5,20,20,3,8
3866,6,3,17,5,21,16,3,11
3867,7,6,14,5,22,14,3,14
3868,7,9,11,5,20,15,3,16
3869,8,12,9,5,18,18,4,18
3870,8,16,8,4,15,22,6,19
3871,8,19,9,4,12,27,7,19
3872,9,20,10,4,9,33,8,20
3873,10,21,12,4,6,37,9,20
3874,10,20,13,4,5,38,10,20
3875,10,18,13,3,8,33,9,21
3876,9,15,13,3,13,25,9,21
3877,9,12,13,2,18,19,9,20
3878,9,8,14,2,22,15,9,19
3879,9,5,17,1,25,15,9,17
3880,11,2,20,1,26,17,9,15
3881,11,-1,22,1,27,19,9,14
3882,11,-1,22,1,29,18,9,14
3883,10,1,19,2,32,14,8,15
3884,8,3,14,2,33,10,7,16
3885,7,4,10,2,33,7,6,16
3886,6,4,8,2,30,6,4,15
3887,5,3,6,2,26,5,3,13
3888,6,2,5,2,23,4,3,12
3889,6,1,3,1,20,4,3,10
3890,7,0,0,1,16,5,4,9
3891,7,0,-3,0,12,6,5,9
3892,7,0,-5,0,10,4,6,10
3893,7,-1,-6,0,8,1,6,11
3894,7,-3,-5,0,7,-1,6,12
3895,6,-4,-3,-1,6,0,5,12
3896,7,-6,-1,-2,5,2,4,12
3897,7,-8,2,-3,6,4,3,12
3898,8,-9,3,-4,6,7,3,12
3899,8,-9,3,-4,6,8,3,13
3900,9,-8,3,-4,8,8,3,14
3901,8,-7,3,-4,10,7,4,14
3902,7,-6,2,-4,12,6,4,14
3903,6,-5,2,-4,15,2,5,14
3904,6,-4,2,-3,19,-1,5,14
3905,5,-3,3,-3,22,-4,6,14
3906,5,-2,6,-3,24,-4,6,13
3907,5,-1,9,-3,26,-3,7,13
3908,6,-1,14,-4,26,1,7,13
3909,6,-2,18,-4,25,4,8,11
3910,6,-4,21,-3,24,7,8,11
3911,6,-4,19,-3,24,7,7,12
3912,6,-2,14,-3,24,6,7,14
3913,5,-1,7,-3,23,7,6,16
3914,5,0,1,-4,21,7,6,17
3915,4,-1,-2,-4,21,5,6,17
3916,5,-2,-4,-4,20,1,6,16
3917,5,-4,-4,-4,20,-4,6,14
3918,5,-6,-2,-3,19,-7,6,12
3919,4,-8,0,-3,18,-7,6,10
3920,4,-10,1,-4,16,-6,5,7
3921,3,-12,2,-5,14,-3,3,4
3922,2,-15,4,-7,11,1,2,1
3923,1,-17,6,-8,9,4,0,-1
3924,0,-16,7,-9,9,6,-2,-1
3925,-1,-14,7,-10,9,8,-2,0
3926,-2,-13,9,-10,10,11,-3,2
3927,-3,-12,12,-10,12,14,-3,4
3928,-4,-11,15,-9,16,14,-3,7
3929,-5,-9,18,-8,21,11,-2,11
3930,-5,-7,20,-7,27,8,-2,14
3931,-4,-4,22,-7,33,6,-1,18
3932,-3,-1,23,-7,37,4,1,22
3933,-2,0,23,-7,40,3,2,25
3934,-2,-1,24,-7,40,5,3,26
3935,-1,-4,25,-8,38,9,4,23
3936,-1,-7,27,-9,34,15,4,20
3937,0,-9,28,-10,31,17,4,17
3938,1,-10,26,-11,30,15,4,16
3939,2,-9,23,-12,32,10,4,16
3940,2,-7,18,-13,34,4,4,17
3941,2,-5,12,-14,35,-1,3,19
3942,2,-3,7,-15,35,-1,2,19
3943,2,-4,5,-16,32,4,1,18
3944,2,-6,5,-18,28,10,0,15
3945,3,-7,6,-18,25,13,-1,14
3946,3,-7,7,-19,24,13,-1,15
3947,4,-6,8,-19,25,11,0,17
3948,5,-4,8,-18,26,8,1,19
3949,6,-1,7,-18,27,8,2,21
3950,7,0,5,-18,27,8,2,22
3951,7,-1,3,-18,27,10,3,21
3952,8,-2,3,-17,28,12,3,19
3953,7,-4,3,-17,28,15,3,18
3954,7,-5,5,-16,29,16,3,17
3955,6,-4,8,-16,31,16,3,17
3956,5,-2,9,-16,33,16,3,19
3957,4,1,9,-16,35,15,3,21
3958,3,4,9,-17,37,14,2,23
3959,2,7,8,-17,38,14,1,25
3960,1,8,8,-17,39,15,-1,26
3961,1,8,10,-17,39,17,-2,27
3962,0,7,14,-16,40,18,-2,28
3963,0,7,17,-16,40,18,-2,29
3964,1,6,18,-15,40,18,-1,30
3965,1,6,18,-16,39,18,-1,30
3966,1,5,17,-16,37,18,-1,28
3967,1,4,15,-18,35,17,0,27
3968,1,3,14,-19,33,15,0,25
3969,1,1,13,-19,32,13,0,24
3970,2,-2,13,-19,31,11,1,22
3971,2,-4,14,-18,31,9,2,21
3972,3,-5,14,-18,33,6,2,20
3973,3,-4,11,-17,35,4,2,21
3974,2,-2,7,-17,38,2,2,23
3975,1,1,3,-16,41,0,2,25
3976,0,2,0,-16,44,-2,2,26
3977,1,3,-1,-15,46,-2,3,26
3978,3,2,1,-15,48,0,4,25
3979,4,1,7,-15,50,2,5,24
3980,6,1,11,-16,52,3,6,22
3981,7,2,14,-16,52,5,6,21
3982,7,3,16,-16,52,8,5,20
3983,7,4,17,-17,50,13,4,19
3984,6,4,18,-17,47,17,4,17
3985,6,3,18,-18,44,20,3,15
3986,6,2,17,-19,41,22,3,13
3987,6,-1,16,-21,37,23,3,11
3988,7,-4,16,-23,34,23,3,8
3989,7,-9,18,-24,31,24,3,5
3990,8,-11,20,-24,30,25,3,4
3991,9,-12,22,-23,30,25,4,4
3992,9,-10,23,-22,31,24,4,6
3993,9,-8,24,-21,32,23,5,8
3994,8,-6,22,-20,34,20,6,9
3995,7,-4,21,-19,35,17,6,10
3996,6,-4,19,-19,37,13,6,9
3997,4,-5,18,-19,39,8,5,9
3998,3,-5,16,-20,41,3,5,9
3999,2,-4,14,-20,44,-1,4,10
4000,2,-3,12,-20,46,-2,4,11
4001,2,-2,12,-20,49,-3,3,11
4002,3,-1,12,-20,51,-2,3,13
4003,3,1,11,-20,54,-2,2,16
4004,4,4,8,-20,55,-1,1,19
4005,4,6,5,-20,54,0,1,22
4006,4,8,3,-21,52,3,0,23
4007,3,8,0,-22,50,5,0,23
4008,2,7,-2,-22,48,4,-1,21
4009,1,6,-3,-23,46,3,0,20
4010,0,5,-4,-23,45,1,0,17
4011,-1,4,-4,-24,43,-1,1,14
4012,-2,1,-2,-24,40,0,1,10
4013,-3,-4,2,-25,37,2,1,7
4014,-4,-8,6,-25,35,4,1,4
4015,-5,-11,9,-25,34,5,0,2
4016,-5,-13,11,-26,34,4,-1,2
4017,-4,-13,11,-26,36,4,-1,4
4018,-3,-11,11,-27,38,4,-1,6
4019,-2,-9,12,-27,40,6,-1,8
4020,-1,-7,14,-27,41,7,-1,9
4021,-1,-5,17,-27,42,8,0,11
4022,-2,-2,18,-26,42,9,1,13
4023,-2,1,19,-25,43,10,1,15
4024,-2,3,19,-25,43,12,2,17
4025,-1,4,19,-24,44,12,3,19
4026,1,6,16,-24,46,10,4,21
4027,3,10,11,-23,47,8,6,25
4028,5,15,4,-23,49,6,6,30
4029,6,20,-2,-23,50,3,7,33
4030,5,23,-6,-24,50,1,6,35
4031,4,25,-8,-25,49,1,5,35
4032,2,24,-5,-26,47,4,3,32
4033,0,22,0,-27,46,8,2,29
4034,-1,20,5,-28,45,9,1,26
4035,-1,18,7,-28,45,9,1,24
4036,-1,16,7,-28,44,7,2,24
4037,-1,14,6,-28,44,4,2,24
4038,-1,12,2,-27,43,1,3,24
4039,0,10,-1,-27,41,1,3,23
4040,0,8,-2,-26,38,2,3,22
4041,-1,6,1,-26,35,6,3,20
4042,-2,4,4,-27,33,8,2,17
4043,-2,5,6,-26,32,10,1,16
4044,-2,8,6,-26,33,9,2,16
4045,-3,12,4,-25,35,8,2,18
4046,-2,17,0,-24,38,6,3,21
4047,-2,20,-4,-24,40,3,4,23
4048,-1,21,-6,-23,44,-2,5,25
4049,0,21,-7,-23,47,-6,5,26
4050,1,21,-6,-23,49,-6,6,26
4051,1,21,-3,-23,49,-2,6,25
4052,2,20,0,-23,47,4,7,24
4053,1,20,2,-23,45,8,7,23
4054,1,20,1,-23,43,8,7,21
4055,1,18,0,-24,42,6,7,19
4056,0,16,-2,-24,41,1,7,17
4057,-1,16,-4,-25,40,-2,6,16
4058,-2,16,-5,-25,38,-2,6,15
4059,-3,15,-4,-26,35,1,6,13
4060,-4,12,-1,-26,32,2,6,12
4061,-4,10,1,-26,31,0,6,11
4062,-3,9,1,-26,32,-4,8,12
4063,-2,9,-2,-24,34,-7,9,14
4064,0,10,-5,-23,36,-9,10,16
4065,2,12,-8,-21,38,-8,11,20
4066,3,15,-9,-20,39,-6,11,22
4067,3,15,-7,-19,39,-4,10,22
4068,2,14,-2,-19,40,-2,10,21
4069,2,14,2,-19,42,-3,9,20
4070,1,14,5,-19,44,-5,9,20
4071,0,15,7,-19,47,-7,8,20
4072,-1,17,9,-19,49,-9,7,21
4073,-2,20,10,-20,52,-11,5,22
4074,-2,24,10,-20,54,-10,4,23
4075,-2,29,6,-20,55,-9,3,24
4076,-2,33,2,-21,56,-6,3,26
4077,-2,36,-1,-21,55,-4,3,27
4078,-1,36,-2,-21,54,-3,4,27
4079,0,33,-1,-22,53,-3,5,25
4080,0,30,2,-22,51,-5,6,23
4081,1,25,4,-21,48,-7,6,20
4082,1,20,5,-21,45,-8,6,16
4083,1,14,6,-21,41,-8,7,12
4084,2,10,6,-20,37,-6,7,9
4085,2,5,6,-20,33,-4,8,6
4086,2,2,7,-19,30,-2,9,3
4087,2,-1,8,-20,29,-2,9,1
4088,2,-3,8,-20,28,-3,8,-1
4089,0,-5,9,-21,29,-6,7,-3
4090,-2,-7,11,-21,31,-8,6,-4
4091,-3,-7,12,-22,32,-10,5,-4
4092,-4,-5,12,-23,34,-9,5,-4
4093,-4,-1,11,-24,35,-5,4,-2
4094,-5,4,9,-25,36,0,3,1
4095,-5,9,8,-26,37,4,2,5
4096,-5,14,6,-27,38,5,2,10
4097,-5,18,3,-27,40,4,2,15
4098,-5,21,1,-27,42,2,2,19
4099,-4,22,0,-27,42,2,2,20
4100,-2,21,1,-26,41,4,3,20
4101,0,19,1,-26,38,8,4,19
4102,2,17,-1,-25,35,9,5,19
4103,3,14,-4,-23,32,7,5,18
4104,2,12,-6,-22,29,4,4,16
4105,1,9,-8,-21,26,2,4,13
4106,-1,5,-8,-19,22,1,3,10
4107,-2,2,-5,-18,19,0,3,6
4108,-2,-2,-1,-18,18,0,4,2
4109,-3,-5,4,-17,18,-2,4,0
4110,-3,-7,5,-17,19,-5,3,-1
4111,-3,-7,5,-17,21,-9,3,0
4112,-3,-5,3,-17,23,-10,3,1
4113,-3,-3,0,-18,24,-9,3,3
4114,-4,1,-3,-18,25,-8,3,4
4115,-4,4,-4,-19,27,-6,4,6
4116,-5,5,-4,-19,28,-4,4,6
4117,-5,6,-2,-19,28,-2,4,6
4118,-5,8,0,-19,30,-1,4,8
4119,-5,12,-1,-19,32,-1,4,12
4120,-5,16,-2,-19,34,-1,4,16
4121,-3,19,-2,-19,35,0,4,19
4122,-2,21,-3,-19,35,3,5,20
4123,0,22,-4,-19,33,4,5,20
4124,1,22,-6,-20,30,5,6,19
4125,1,21,-9,-20,26,4,7,16
4126,1,18,-11,-19,22,4,7,13
4127,0,14,-15,-19,18,2,7,11
4128,0,9,-18,-19,15,0,7,8
4129,-1,4,-18,-19,12,-1,6,4
4130,-1,-1,-16,-19,9,-3,5,1
4131,-2,-3,-12,-19,8,-5,3,-1
4132,-4,-5,-8,-19,7,-7,2,-3
4133,-5,-7,-4,-19,7,-6,1,-4
4134,-6,-9,0,-20,7,-5,1,-6
4135,-7,-10,4,-20,8,-3,1,-6
4136,-6,-11,8,-19,10,-1,3,-6
4137,-5,-10,10,-18,13,1,4,-6
4138,-4,-7,8,-18,15,0,5,-4
4139,-2,-3,2,-17,17,-1,6,-1
4140,0,2,-5,-16,19,-2,7,2
4141,2,6,-11,-15,20,-3,7,5
4142,3,9,-13,-15,21,-4,7,7
4143,3,10,-11,-14,22,-5,7,7
4144,3,10,-7,-14,21,-4,6,7
4145,1,11,-5,-13,19,-3,6,6
4146,-1,11,-6,-13,16,-2,5,5
4147,-2,12,-8,-13,12,0,4,4
4148,-3,12,-9,-13,8,1,4,3
4149,-2,12,-10,-12,7,1,4,2
4150,-1,11,-10,-10,6,-3,6,3
4151,1,10,-11,-8,7,-7,8,4
4152,3,10,-10,-7,8,-10,9,6
4153,5,8,-10,-5,9,-12,11,6
4154,5,7,-9,-4,9,-12,12,5
4155,6,5,-9,-3,8,-11,12,4
4156,6,3,-9,-2,7,-10,13,1
4157,5,1,-9,-1,6,-10,13,-2
4158,5,-2,-7,1,6,-10,13,-5
4159,3,-5,-4,1,6,-10,13,-9
4160,1,-8,0,0,5,-8,11,-12
4161,-2,-9,3,-1,6,-7,10,-13
4162,-4,-8,2,-2,7,-9,8,-12
4163,-5,-4,-1,-3,8,-10,6,-8
4164,-4,0,-5,-4,9,-11,5,-5
4165,-3,4,-8,-4,10,-10,5,-2
4166,0,7,-9,-5,10,-7,7,-1
4167,2,9,-9,-5,10,-4,8,0
4168,4,12,-9,-6,12,-3,10,1
4169,5,16,-9,-6,14,-5,11,2
4170,7,20,-11,-6,16,-8,12,4
4171,8,22,-11,-5,16,-9,13,6
4172,8,23,-12,-5,14,-8,13,6
4173,9,22,-13,-4,11,-6,14,5
4174,9,22,-16,-3,8,-4,14,5
4175,9,21,-18,-2,4,-4,15,5
4176,8,20,-20,-1,2,-6,15,5
4177,7,18,-20,0,0,-8,15,6
4178,7,15,-19,0,-2,-9,14,5
4179,7,10,-15,0,-3,-8,13,4
4180,7,5,-9,-1,-4,-5,11,2
4181,7,1,-3,-3,-5,-1,9,0
4182,7,-3,4,-4,-5,3,8,-2
4183,6,-6,10,-5,-4,7,7,-3
4184,6,-9,13,-5,-2,8,6,-4
4185,5,-10,14,-6,0,6,6,-6
4186,5,-11,12,-6,2,2,6,-8
4187,4,-11,11,-6,4,-2,7,-10
4188,3,-9,9,-6,5,-5,7,-11
4189,3,-6,8,-6,5,-5,7,-11
4190,3,-2,6,-5,4,-4,7,-9
4191,4,4,2,-5,4,-5,6,-6
4192,5,10,-4,-4,5,-7,6,-2
4193,6,14,-9,-4,5,-9,7,2
4194,7,17,-12,-3,6,-10,7,4
4195,8,18,-14,-2,7,-11,9,6
4196,9,18,-14,-2,7,-10,10,8
4197,10,19,-13,-1,6,-8,11,9
4198,12,18,-12,0,5,-6,13,9
4199,14,17,-12,1,3,-4,14,10
4200,16,15,-11,2,0,-2,15,10
4201,16,13,-11,3,-3,-1,16,11
4202,16,12,-10,4,-4,-2,16,12
4203,16,12,-10,5,-4,-5,17,14
4204,14,13,-12,5,-2,-12,17,17
4205,13,14,-14,6,2,-19,16,19
4206,11,13,-14,6,4,-24,14,19
4207,10,11,-12,6,7,-27,13,18
4208,8,9,-7,5,8,-26,11,16
4209,7,6,-1,5,9,-21,9,12
4210,6,3,6,4,9,-15,7,9
4211,6,2,10,3,10,-9,5,8
4212,6,3,12,1,11,-6,5,7
4213,7,4,12,0,11,-4,4,7
4214,6,6,12,-1,9,-1,5,6
4215,6,8,12,-1,8,1,5,6
4216,6,9,11,-1,6,2,6,5
4217,6,11,9,-1,5,0,7,5
4218,7,12,5,0,4,-2,8,6
4219,8,14,-1,1,3,-4,10,8
4220,9,14,-6,1,0,-5,10,9
4221,9,14,-10,1,-2,-5,11,10
4222,9,12,-11,2,-5,-6,11,11
4223,8,10,-10,3,-5,-8,11,12
4224,8,8,-7,4,-5,-10,11,13
4225,9,7,-3,6,-3,-11,11,14
4226,10,7,0,6,0,-10,12,17
4227,11,7,3,6,2,-8,11,19
4228,11,8,5,5,5,-5,11,21
4229,11,7,8,4,7,-3,9,22
4230,10,5,12,3,8,-2,8,21
4231,9,2,16,2,8,-1,6,18
4232,8,-1,18,1,6,1,5,14
4233,7,-5,19,0,4,2,4,10
4234,5,-7,20,-1,1,2,2,6
4235,4,-9,20,-2,-2,1,1,3
4236,4,-10,21,-2,-3,0,-1,1
4237,4,-10,22,-2,-4,1,-3,1
4238,5,-10,24,-2,-3,2,-3,1
4239,5,-11,25,-2,-2,3,-3,2
4240,5,-10,25,-3,-1,3,-3,3
4241,5,-10,24,-2,0,2,-3,4
4242,4,-10,23,-2,-1,1,-4,5
4243,3,-11,23,-2,-2,1,-5,5
4244,2,-11,23,-2,-4,3,-6,6
4245,2,-11,23,-2,-6,4,-6,7
4246,1,-12,24,-1,-8,4,-5,7
4247,2,-13,26,0,-9,2,-4,6
4248,2,-16,27,1,-12,2,-3,5
4249,3,-18,29,2,-14,2,-2,4
4250,4,-20,29,3,-15,1,-2,5
4251,4,-21,30,3,-14,0,-2,6
4252,4,-21,32,3,-14,1,-2,8
4253,2,-22,35,2,-13,3,-3,9
4254,1,-24,39,2,-13,6,-5,10
4255,-1,-26,44,0,-12,9,-7,9
4256,-1,-26,46,-1,-12,11,-9,9
4257,0,-25,45,-3,-12,12,-10,10
4258,1,-22,41,-4,-11,10,-11,11
4259,2,-19,35,-4,-10,7,-10,13
4260,3,-14,28,-3,-9,3,-9,16
4261,3,-11,23,-2,-7,-1,-8,19
4262,4,-10,20,-1,-6,-4,-7,22
4263,5,-9,21,0,-5,-5,-6,23
4264,6,-9,23,1,-5,-3,-6,24
4265,6,-8,25,2,-6,-1,-5,25
4266,6,-8,27,2,-7,1,-5,25
4267,6,-7,28,3,-9,2,-5,26
4268,6,-7,29,3,-11,3,-5,27
4269,5,-8,28,4,-13,1,-5,29
4270,4,-9,27,5,-15,-1,-5,30
4271,4,-11,27,6,-18,-2,-5,31
4272,4,-14,27,7,-21,-3,-6,30
4273,5,-17,28,7,-22,-5,-5,29
4274,6,-19,30,8,-23,-7,-4,28
4275,8,-21,33,9,-23,-7,-3,27
4276,9,-21,37,9,-23,-5,-1,27
4277,11,-21,41,8,-23,-2,-1,28
4278,13,-20,41,8,-22,1,0,30
4279,14,-17,38,7,-21,1,0,32
4280,15,-14,34,7,-18,-1,0,35
4281,15,-12,31,7,-12,-5,1,39
4282,15,-9,28,8,-6,-9,1,43
4283,15,-6,28,9,-2,-10,1,47
4284,16,-5,31,10,1,-9,1,49
4285,16,-6,34,10,2,-6,1,49
4286,17,-6,37,11,1,-4,2,49
4287,18,-5,37,12,0,-3,3,49
4288,20,-3,35,13,-2,-3,3,50
4289,21,-1,34,14,-6,-1,4,50
4290,21,-2,33,15,-10,0,3,50
4291,21,-3,34,16,-15,1,3,49
4292,21,-6,36,17,-19,-1,3,48
4293,21,-9,39,17,-21,-2,3,47
4294,20,-11,42,18,-21,-3,3,47
4295,20,-14,47,18,-21,-2,4,46
4296,20,-17,50,18,-21,1,4,45
4297,20,-19,51,17,-20,3,4,45
4298,21,-20,51,16,-19,6,4,45
4299,22,-19,50,15,-18,8,4,47
4300,24,-18,48,15,-16,9,6,49
4301,27,-17,47,15,-14,11,7,51
4302,28,-17,49,15,-14,13,8,52
4303,29,-19,52,15,-15,14,9,51
4304,29,-20,54,15,-15,13,9,51
4305,28,-21,56,14,-13,12,8,50
4306,27,-20,56,14,-10,10,7,51
4307,26,-18,56,14,-6,8,5,53
4308,25,-17,56,14,-2,6,5,56
4309,25,-15,55,14,2,4,4,59
4310,25,-13,54,14,4,3,4,62
4311,24,-13,55,14,5,4,3,64
4312,22,-13,57,14,5,5,2,65
4313,21,-13,59,14,4,6,1,66
4314,20,-13,62,14,2,7,0,67
4315,21,-12,64,14,0,8,0,68
4316,21,-10,64,15,-2,9,0,70
4317,22,-6,63,17,-3,11,1,74
4318,24,-2,60,18,-3,11,2,79
4319,25,3,54,19,-2,7,2,84
4320,26,5,50,20,0,2,3,88
4321,27,6,48,21,1,-2,4,90
4322,27,4,49,21,-1,-3,4,89
4323,26,0,53,21,-4,0,3,86
4324,24,-6,57,21,-7,6,3,82
4325,23,-11,61,21,-8,12,2,79
4326,23,-14,64,20,-7,15,1,78
4327,22,-16,66,18,-4,16,0,77
4328,22,-17,68,17,0,15,-1,77
4329,22,-18,72,15,5,15,-2,76
4330,23,-17,76,13,9,14,-2,76
4331,23,-13,77,12,12,13,-2,77
4332,24,-9,75,12,14,13,-2,80
4333,24,-4,72,12,13,13,-2,82
4334,23,1,69,12,11,15,-2,84
4335,21,5,67,12,9,16,-2,86
4336,20,7,66,12,7,17,-2,87
4337,19,7,67,13,5,15,-1,88
4338,19,7,67,14,5,12,-1,89
4339,20,6,67,15,4,11,-1,91
4340,21,4,68,16,3,11,0,93
4341,23,2,69,17,2,11,1,95
4342,24,1,70,17,1,11,2,97
4343,25,1,72,17,1,11,2,100
4344,25,1,73,18,1,10,3,103
4345,26,1,75,19,1,8,3,106
4346,27,0,78,19,2,7,4,107
4347,28,-1,81,21,2,6,5,107
4348,29,-3,81,22,2,6,7,106
4349,31,-5,80,23,3,6,8,105
4350,32,-7,79,24,4,7,10,102
4351,32,-9,77,24,6,9,10,98
4352,32,-13,77,22,9,12,10,94
4353,31,-16,79,20,12,15,10,89
4354,30,-18,82,18,15,18,9,85
4355,29,-18,84,16,17,21,8,83
4356,28,-14,84,13,18,24,7,84
4357,27,-8,82,12,19,26,6,87
4358,27,-1,79,11,19,27,5,92
4359,26,4,77,11,19,26,5,95
4360,26,7,75,11,20,24,4,97
4361,25,8,74,12,20,22,4,98
4362,24,7,75,12,19,22,4,97
4363,23,6,77,12,17,23,3,97
4364,22,5,80,12,15,23,2,97
4365,21,5,81,12,14,22,1,97
4366,21,4,80,13,13,20,2,98
4367,21,4,79,14,13,17,2,98
4368,21,3,78,14,14,14,3,99
4369,21,3,78,15,14,13,4,99
4370,21,2,78,16,12,14,4,99
4371,22,-1,80,16,10,16,4,97
4372,23,-4,80,16,7,18,4,94
4373,25,-6,80,16,5,19,4,90
4374,25,-8,80,16,2,21,5,86
4375,26,-9,80,16,1,23,6,83
4376,25,-9,79,16,0,23,8,80
