Time,F3 - C3,C3 - P3,P3 - O1,F4 - C4,C4 - P4,P4 - O2,FZ - CZ,CZ - PZ
1,-5,-39,-46,3,-61,-23,-6,-85
2,-3,-39,-46,4,-60,-26,-6,-84
3,-2,-39,-47,5,-58,-27,-5,-83
4,0,-39,-50,7,-57,-28,-3,-80
5,1,-37,-52,9,-55,-28,-1,-77
6,1,-33,-51,10,-53,-26,1,-72
7,0,-28,-46,11,-51,-23,2,-67
8,-1,-24,-38,12,-48,-19,2,-63
9,-3,-20,-31,12,-44,-15,2,-59
10,-4,-16,-28,12,-40,-13,1,-56
11,-6,-12,-28,11,-36,-13,-1,-54
12,-7,-8,-31,10,-34,-13,-3,-53
13,-8,-5,-36,9,-33,-13,-5,-52
14,-9,-3,-40,8,-32,-13,-7,-52
15,-10,-3,-41,8,-32,-14,-9,-52
16,-10,-7,-41,8,-33,-15,-11,-55
17,-11,-13,-38,8,-34,-16,-12,-58
18,-11,-19,-34,9,-36,-16,-12,-63
19,-11,-24,-29,9,-39,-16,-13,-68
20,-12,-27,-27,9,-41,-16,-13,-72
21,-12,-27,-28,9,-43,-17,-14,-75
22,-13,-25,-31,9,-45,-18,-14,-76
23,-13,-25,-33,9,-47,-19,-14,-78
24,-12,-26,-34,10,-49,-19,-13,-79
25,-11,-29,-33,12,-50,-18,-12,-80
26,-9,-31,-32,13,-50,-17,-11,-81
27,-8,-31,-32,14,-49,-17,-9,-79
28,-7,-29,-32,15,-48,-16,-7,-76
29,-6,-25,-35,16,-46,-17,-6,-72
30,-5,-22,-37,16,-45,-18,-5,-69
31,-5,-19,-37,16,-44,-18,-4,-67
32,-6,-18,-37,17,-43,-19,-4,-65
33,-7,-15,-37,17,-42,-21,-4,-63
34,-8,-13,-36,18,-41,-22,-5,-61
35,-9,-12,-35,18,-39,-22,-7,-59
36,-10,-11,-35,19,-37,-24,-10,-56
37,-11,-9,-33,19,-34,-27,-11,-54
38,-11,-9,-31,20,-32,-30,-11,-54
39,-11,-11,-27,20,-32,-29,-10,-57
40,-10,-16,-21,20,-33,-27,-9,-60
41,-8,-20,-18,20,-34,-25,-7,-62
42,-5,-22,-18,20,-35,-24,-6,-63
43,-3,-22,-20,20,-37,-24,-5,-62
44,-2,-20,-23,19,-37,-25,-5,-61
45,-1,-17,-28,18,-37,-27,-5,-58
46,-1,-14,-31,19,-37,-28,-6,-57
47,-1,-13,-31,19,-38,-28,-6,-58
48,-1,-14,-29,20,-39,-27,-6,-58
49,0,-13,-28,22,-40,-25,-5,-59
50,1,-13,-27,24,-42,-24,-5,-59
51,1,-16,-25,26,-45,-22,-4,-61
52,2,-21,-22,27,-47,-20,-3,-64
53,3,-25,-21,28,-48,-19,-2,-65
54,4,-25,-23,29,-49,-19,-1,-65
55,5,-22,-28,29,-49,-21,-1,-62
56,5,-17,-33,29,-48,-23,-1,-58
57,4,-11,-36,29,-48,-24,-2,-54
58,1,-8,-37,28,-48,-22,-2,-53
59,-1,-7,-34,27,-49,-20,-3,-53
60,-2,-8,-28,27,-51,-16,-4,-55
61,-3,-9,-21,26,-51,-12,-5,-57
62,-3,-9,-17,26,-50,-12,-5,-56
63,-3,-8,-16,26,-48,-16,-6,-55
64,-2,-10,-17,26,-45,-21,-7,-53
65,-2,-12,-19,26,-43,-23,-7,-53
66,-3,-14,-20,27,-43,-23,-8,-53
67,-3,-16,-21,26,-44,-22,-9,-54
68,-3,-18,-22,26,-47,-19,-10,-56
69,-4,-20,-21,25,-49,-18,-10,-58
70,-5,-20,-21,24,-50,-18,-10,-60
71,-5,-19,-22,24,-52,-18,-10,-61
72,-6,-18,-23,24,-53,-18,-10,-63
73,-6,-18,-24,24,-55,-17,-10,-64
74,-6,-18,-24,24,-55,-17,-10,-64
75,-5,-19,-22,24,-55,-16,-11,-64
76,-5,-21,-20,23,-54,-16,-11,-64
77,-4,-24,-18,23,-53,-16,-12,-64
78,-4,-28,-16,23,-52,-15,-12,-65
79,-4,-31,-16,24,-52,-15,-12,-67
80,-5,-32,-17,24,-52,-14,-12,-68
81,-5,-31,-18,23,-51,-14,-12,-69
82,-6,-29,-19,23,-50,-13,-13,-69
83,-6,-26,-20,22,-49,-12,-14,-69
84,-7,-25,-19,21,-48,-11,-14,-70
85,-7,-26,-18,21,-48,-12,-15,-71
86,-8,-27,-18,20,-48,-12,-16,-71
87,-9,-28,-18,20,-50,-12,-16,-69
88,-11,-28,-16,20,-52,-11,-16,-67
89,-12,-29,-12,20,-55,-8,-16,-66
90,-13,-31,-10,20,-58,-6,-16,-65
91,-13,-34,-12,19,-62,-5,-16,-66
92,-12,-37,-15,19,-64,-5,-14,-67
93,-11,-37,-20,20,-65,-7,-12,-67
94,-10,-35,-25,20,-64,-9,-10,-66
95,-8,-31,-30,21,-62,-11,-7,-64
96,-7,-30,-33,21,-60,-13,-5,-63
97,-6,-29,-33,22,-57,-14,-3,-61
98,-5,-28,-33,23,-55,-16,-2,-59
99,-4,-27,-32,24,-53,-16,-2,-57
100,-4,-27,-29,25,-52,-15,-2,-56
101,-3,-28,-25,25,-52,-13,-3,-56
102,-3,-28,-22,26,-52,-10,-4,-56
103,-3,-27,-20,26,-53,-8,-5,-56
104,-4,-25,-21,25,-53,-6,-6,-56
105,-5,-22,-23,25,-52,-4,-7,-55
106,-6,-20,-24,24,-52,-3,-8,-55
107,-8,-20,-24,23,-52,-3,-9,-56
108,-9,-22,-23,22,-52,-2,-10,-59
109,-10,-25,-20,21,-54,-1,-11,-62
110,-11,-26,-17,21,-55,1,-12,-64
111,-12,-25,-16,21,-56,1,-12,-65
112,-12,-23,-16,21,-57,1,-13,-64
113,-12,-21,-17,21,-58,0,-13,-62
114,-12,-20,-20,21,-58,-2,-13,-61
115,-11,-21,-23,20,-58,-4,-13,-60
116,-11,-23,-26,21,-58,-6,-13,-60
117,-10,-24,-27,21,-58,-6,-13,-60
118,-9,-25,-26,22,-58,-6,-13,-61
119,-8,-27,-24,22,-58,-5,-11,-62
120,-8,-28,-23,22,-57,-3,-10,-63
121,-7,-27,-24,22,-55,-2,-9,-63
122,-5,-25,-27,23,-52,-2,-7,-61
123,-3,-22,-32,24,-49,-5,-6,-58
124,-3,-20,-37,26,-45,-8,-5,-54
125,-2,-17,-42,27,-42,-12,-4,-50
126,-3,-14,-45,28,-40,-14,-4,-47
127,-4,-11,-46,28,-40,-15,-4,-45
128,-4,-8,-46,28,-41,-15,-4,-43
129,-4,-5,-45,27,-42,-14,-4,-42
130,-4,-2,-42,27,-42,-14,-4,-41
131,-3,-1,-40,27,-42,-13,-4,-39
132,-3,-2,-38,27,-44,-11,-4,-39
133,-3,-5,-36,26,-47,-6,-4,-41
134,-3,-10,-34,26,-52,-3,-5,-45
135,-3,-16,-31,25,-55,-3,-5,-49
136,-4,-23,-28,25,-57,-8,-5,-54
137,-5,-28,-29,25,-56,-15,-4,-56
138,-6,-30,-34,26,-53,-22,-4,-56
139,-8,-28,-41,26,-51,-25,-4,-54
140,-9,-24,-49,27,-50,-25,-4,-52
141,-9,-22,-53,27,-51,-21,-4,-51
142,-8,-20,-53,27,-53,-18,-5,-51
143,-7,-20,-49,28,-54,-15,-6,-51
144,-7,-21,-43,28,-54,-13,-6,-52
145,-5,-20,-41,28,-56,-11,-6,-52
146,-4,-19,-40,28,-57,-8,-6,-51
147,-4,-19,-40,28,-59,-7,-6,-50
148,-4,-19,-38,27,-58,-7,-5,-48
149,-4,-19,-37,26,-55,-9,-5,-45
150,-4,-17,-36,25,-51,-11,-4,-41
151,-5,-15,-36,25,-48,-11,-4,-37
152,-5,-14,-36,24,-46,-9,-5,-35
153,-6,-15,-35,23,-47,-6,-6,-35
154,-7,-18,-31,21,-48,-2,-7,-37
155,-8,-21,-25,20,-50,1,-8,-40
156,-10,-23,-21,19,-51,3,-9,-43
157,-10,-24,-21,18,-51,3,-10,-45
158,-10,-23,-24,18,-52,2,-9,-45
159,-9,-22,-27,20,-53,1,-8,-45
160,-7,-23,-28,22,-54,1,-7,-46
161,-5,-24,-30,24,-56,-1,-5,-48
162,-4,-24,-33,26,-56,-4,-3,-49
163,-3,-24,-37,28,-56,-7,-2,-49
164,-3,-24,-41,29,-55,-11,-1,-48
165,-3,-24,-44,30,-54,-14,-1,-46
166,-3,-25,-44,31,-52,-17,-1,-45
167,-3,-27,-41,31,-49,-19,-1,-43
168,-3,-30,-38,32,-47,-20,-1,-42
169,-3,-31,-36,32,-44,-21,-1,-39
170,-3,-31,-36,31,-41,-21,0,-37
171,-3,-31,-35,30,-39,-20,0,-36
172,-3,-32,-32,28,-38,-19,0,-36
173,-3,-33,-30,27,-38,-17,-1,-37
174,-4,-33,-28,25,-40,-14,-1,-38
175,-4,-33,-26,24,-43,-11,-1,-39
176,-5,-33,-25,23,-46,-11,-2,-39
177,-6,-30,-27,22,-48,-11,-2,-38
178,-7,-27,-30,21,-49,-13,-3,-37
179,-8,-25,-32,20,-50,-14,-4,-37
180,-8,-26,-36,19,-50,-17,-4,-37
181,-8,-27,-38,19,-52,-17,-4,-37
182,-7,-28,-38,19,-54,-15,-4,-39
183,-6,-31,-35,18,-55,-12,-4,-42
184,-6,-34,-31,18,-56,-10,-4,-44
185,-6,-35,-30,17,-55,-11,-5,-44
186,-7,-33,-32,17,-53,-12,-7,-43
187,-7,-31,-35,17,-50,-13,-7,-39
188,-6,-27,-36,19,-47,-15,-8,-36
189,-5,-24,-36,20,-45,-17,-7,-32
190,-4,-20,-35,23,-42,-18,-6,-30
191,-4,-17,-34,24,-41,-19,-5,-28
192,-3,-16,-31,26,-39,-19,-3,-27
193,-2,-17,-28,26,-39,-19,-2,-27
194,-1,-19,-25,26,-39,-17,-2,-28
195,-1,-22,-23,26,-39,-16,-3,-29
196,-1,-24,-21,26,-40,-14,-4,-31
197,-2,-26,-20,26,-41,-13,-5,-32
198,-3,-27,-21,26,-43,-13,-6,-34
199,-3,-27,-24,27,-46,-13,-6,-35
200,-4,-28,-27,26,-47,-13,-6,-35
201,-4,-28,-28,26,-48,-13,-6,-36
202,-5,-30,-26,24,-48,-13,-7,-36
203,-5,-31,-23,23,-49,-13,-7,-37
204,-6,-31,-22,22,-49,-12,-7,-36
205,-6,-30,-22,21,-49,-11,-7,-36
206,-7,-28,-23,21,-50,-10,-7,-36
207,-8,-26,-28,21,-51,-11,-7,-35
208,-9,-24,-35,22,-52,-13,-8,-34
209,-10,-23,-40,23,-53,-16,-8,-33
210,-9,-23,-40,24,-54,-18,-8,-33
211,-8,-23,-38,25,-54,-19,-8,-33
212,-7,-24,-35,26,-52,-19,-8,-32
213,-7,-23,-31,26,-48,-19,-9,-31
214,-6,-22,-27,26,-44,-18,-9,-28
215,-6,-20,-23,26,-41,-16,-9,-26
216,-6,-19,-20,26,-39,-13,-10,-25
217,-6,-18,-18,26,-39,-11,-10,-24
218,-6,-17,-17,25,-39,-8,-10,-24
219,-7,-17,-15,23,-40,-6,-11,-24
220,-7,-18,-14,22,-43,-4,-12,-25
221,-8,-19,-14,20,-45,-4,-14,-26
222,-8,-20,-13,18,-48,-3,-16,-26
223,-9,-22,-11,17,-50,-2,-17,-27
224,-9,-26,-9,16,-52,-1,-18,-30
225,-9,-31,-6,16,-55,0,-18,-32
226,-9,-35,-4,16,-57,1,-18,-35
227,-9,-37,-4,16,-59,1,-18,-36
228,-9,-37,-8,16,-59,0,-17,-36
229,-9,-34,-13,17,-58,-3,-16,-33
230,-10,-28,-20,18,-55,-6,-15,-27
231,-9,-22,-24,18,-52,-9,-14,-22
232,-8,-19,-27,19,-49,-9,-13,-18
233,-6,-17,-26,19,-47,-8,-12,-16
234,-4,-18,-23,19,-47,-6,-11,-17
235,-3,-19,-20,19,-47,-5,-11,-19
236,-3,-22,-18,18,-47,-5,-11,-21
237,-3,-24,-16,18,-49,-5,-11,-23
238,-4,-25,-14,18,-51,-5,-12,-24
239,-5,-26,-13,18,-52,-5,-12,-23
240,-5,-26,-13,18,-52,-5,-12,-22
241,-4,-27,-14,19,-51,-7,-12,-20
242,-2,-27,-15,20,-49,-9,-10,-19
243,-1,-26,-16,21,-47,-11,-8,-18
244,0,-27,-15,22,-44,-13,-6,-18
245,1,-26,-12,22,-42,-12,-4,-19
246,0,-25,-11,23,-40,-10,-3,-18
247,-1,-25,-9,22,-39,-9,-3,-18
248,-2,-26,-8,22,-39,-8,-4,-18
249,-2,-27,-8,21,-39,-7,-5,-19
250,-3,-27,-10,20,-40,-7,-6,-19
251,-3,-25,-13,19,-41,-5,-7,-19
252,-4,-24,-14,18,-42,-4,-8,-18
253,-4,-22,-15,18,-43,-3,-8,-17
254,-5,-21,-16,17,-45,-2,-9,-16
255,-6,-21,-14,16,-46,-1,-10,-16
256,-7,-23,-11,15,-46,1,-11,-18
257,-8,-24,-7,14,-45,2,-11,-20
258,-8,-23,-6,13,-43,2,-12,-21
259,-8,-22,-6,12,-40,2,-12,-21
260,-7,-21,-5,13,-37,1,-11,-21
261,-7,-19,-4,14,-35,-1,-10,-20
262,-7,-18,-4,15,-33,-3,-9,-18
263,-7,-17,-3,17,-32,-5,-9,-17
264,-7,-17,-2,18,-31,-6,-8,-17
265,-7,-17,-2,19,-31,-8,-8,-17
266,-7,-17,-3,20,-30,-9,-9,-17
267,-7,-19,-3,20,-30,-8,-9,-17
268,-7,-21,-1,19,-30,-5,-10,-18
269,-7,-21,-1,18,-30,-3,-9,-18
270,-6,-20,-4,18,-30,-3,-9,-17
271,-5,-19,-9,17,-31,-3,-9,-15
272,-4,-17,-15,17,-31,-3,-9,-13
273,-4,-15,-20,17,-32,-4,-9,-11
274,-3,-13,-22,16,-32,-4,-10,-9
275,-3,-13,-20,15,-33,-4,-11,-9
276,-3,-13,-16,14,-34,-4,-11,-9
277,-3,-15,-10,14,-34,-6,-12,-10
278,-3,-17,-6,14,-33,-8,-12,-11
279,-3,-19,-4,16,-32,-11,-12,-12
280,-3,-19,-4,17,-31,-12,-12,-13
281,-4,-19,-5,19,-30,-11,-11,-12
282,-4,-18,-5,20,-30,-9,-11,-12
283,-5,-19,-3,20,-31,-6,-11,-13
284,-5,-20,0,20,-31,-4,-11,-14
285,-6,-21,2,20,-30,-3,-11,-14
286,-6,-21,2,20,-30,-3,-10,-14
287,-7,-20,-1,20,-29,-5,-10,-12
288,-8,-18,-5,19,-30,-7,-11,-11
289,-9,-17,-8,18,-31,-8,-11,-11
290,-11,-18,-6,17,-31,-7,-12,-12
291,-11,-20,-2,16,-30,-5,-12,-14
292,-12,-21,1,16,-29,-2,-13,-16
293,-12,-22,0,16,-29,2,-13,-16
294,-12,-22,-3,16,-29,3,-12,-18
295,-12,-24,-5,16,-31,3,-12,-20
296,-12,-25,-8,16,-33,2,-12,-23
297,-12,-27,-9,16,-36,0,-12,-25
298,-13,-27,-8,16,-37,-2,-12,-27
299,-13,-27,-6,16,-38,-2,-12,-28
300,-13,-26,-7,17,-39,-1,-12,-28
301,-13,-25,-9,18,-39,0,-12,-27
302,-12,-23,-10,18,-39,-1,-12,-25
303,-12,-22,-8,19,-38,-1,-11,-23
304,-11,-20,-7,19,-37,-1,-10,-19
305,-10,-17,-7,19,-35,-1,-9,-14
306,-8,-14,-8,20,-32,-1,-7,-9
307,-5,-11,-10,21,-30,-3,-4,-5
308,-3,-9,-13,23,-26,-7,-3,-1
309,-2,-6,-16,24,-22,-11,-1,4
310,-2,-3,-16,25,-18,-15,-1,8
311,-3,-2,-14,25,-14,-17,-1,9
312,-3,-2,-11,24,-13,-14,-2,9
313,-4,-3,-10,23,-14,-11,-3,8
314,-4,-4,-10,22,-17,-6,-4,6
315,-3,-5,-12,21,-20,-3,-4,5
316,-3,-5,-13,20,-22,-1,-4,3
317,-4,-5,-13,19,-23,-1,-4,2
318,-5,-6,-11,19,-24,0,-4,0
319,-5,-7,-9,18,-25,1,-4,-2
320,-6,-7,-7,19,-26,1,-4,-3
321,-6,-6,-6,19,-26,1,-4,-4
322,-6,-4,-6,20,-26,1,-4,-4
323,-5,-2,-7,21,-25,-1,-4,-3
324,-5,-2,-7,21,-24,-2,-4,-3
325,-5,-2,-6,21,-23,-2,-4,-2
326,-5,-3,-6,21,-23,-1,-4,-2
327,-6,-4,-6,21,-24,2,-5,-3
328,-7,-5,-4,21,-25,3,-5,-4
329,-8,-6,-2,21,-26,4,-6,-5
330,-8,-7,0,21,-26,4,-6,-6
331,-8,-7,1,20,-24,3,-6,-5
332,-7,-7,0,19,-21,2,-6,-4
333,-6,-7,-2,18,-17,1,-6,-2
334,-5,-6,-3,17,-14,1,-7,-1
335,-5,-6,-4,17,-13,1,-7,-1
336,-5,-6,-4,17,-13,2,-8,-2
337,-4,-5,-4,17,-14,3,-9,-2
338,-4,-4,-5,17,-14,3,-8,-1
339,-4,-2,-6,17,-16,2,-7,0
340,-3,-1,-6,18,-17,1,-6,2
341,-3,-1,-5,18,-18,0,-4,2
342,-3,-2,-4,19,-21,1,-3,1
343,-3,-4,-3,20,-23,3,-3,-1
344,-4,-6,-3,20,-24,5,-4,-3
345,-5,-6,-4,19,-24,6,-4,-4
346,-6,-6,-4,18,-23,5,-5,-4
347,-6,-4,-4,16,-22,3,-6,-3
348,-7,-3,-3,15,-19,1,-7,-2
349,-6,-3,0,14,-18,1,-7,-1
350,-5,-3,2,13,-18,3,-7,-1
351,-3,-4,2,13,-18,5,-6,-1
352,-2,-5,2,13,-18,7,-4,-1
353,-1,-6,1,13,-19,7,-3,-2
354,-1,-7,0,14,-20,6,-3,-3
355,-2,-8,0,14,-21,6,-3,-5
356,-3,-10,0,13,-23,5,-4,-8
357,-3,-11,-1,13,-24,4,-4,-9
358,-3,-12,-3,12,-23,1,-5,-10
359,-2,-12,-5,11,-22,0,-5,-9
360,-1,-11,-6,11,-20,0,-5,-8
361,-1,-11,-5,10,-20,2,-5,-6
362,0,-11,-3,10,-20,4,-5,-4
363,0,-11,1,11,-21,6,-4,-3
364,1,-10,4,12,-22,7,-4,-2
365,2,-8,4,14,-22,8,-3,1
366,2,-5,2,15,-21,8,-2,3
367,2,-2,0,16,-19,8,-3,6
368,2,1,0,16,-17,9,-4,8
369,1,2,0,15,-15,10,-5,9
370,1,3,2,14,-13,12,-5,10
371,1,3,3,14,-12,12,-4,10
372,1,4,2,14,-11,11,-3,10
373,2,6,-2,15,-9,9,-2,11
374,2,7,-6,16,-9,6,-1,12
375,3,8,-9,18,-8,4,-1,12
376,3,6,-8,18,-9,3,0,11
377,2,3,-5,18,-11,4,-1,8
378,2,0,-2,18,-13,6,-2,4
379,1,-3,0,17,-15,5,-3,1
380,1,-5,-1,16,-16,2,-4,-1
381,2,-8,-2,14,-18,-2,-4,-4
382,3,-10,-4,13,-19,-4,-4,-6
383,3,-13,-5,13,-20,-5,-3,-9
384,4,-16,-5,12,-21,-4,-3,-11
385,5,-19,-4,13,-23,-2,-2,-13
386,5,-20,-3,14,-24,1,-1,-14
387,6,-19,-2,15,-26,4,0,-14
388,7,-18,-1,16,-27,8,1,-14
389,7,-15,-1,17,-28,10,1,-12
390,8,-12,-3,17,-27,11,1,-10
391,8,-8,-6,18,-26,10,2,-6
392,9,-6,-8,18,-23,9,2,-2
393,8,-5,-6,18,-19,6,2,2
394,8,-5,-3,18,-15,4,1,6
395,8,-4,0,18,-11,2,1,9
396,7,-2,3,18,-8,0,1,12
397,7,0,6,17,-6,-2,1,14
398,7,1,9,17,-5,-2,1,14
399,7,1,12,17,-6,0,1,13
400,7,1,13,17,-7,3,1,11
401,6,-1,15,16,-8,5,1,9
402,5,-2,15,15,-8,5,0,7
403,4,-3,13,13,-8,6,-2,6
404,3,-3,8,12,-8,7,-4,6
405,3,-2,4,11,-9,7,-6,6
406,3,0,-1,10,-10,5,-6,7
407,3,2,-4,11,-11,3,-6,7
408,4,1,-3,11,-12,2,-5,6
409,4,-1,1,12,-13,1,-5,5
410,5,-3,3,13,-14,0,-4,5
411,5,-2,1,13,-14,-1,-4,6
412,5,1,-4,13,-14,-1,-4,9
413,5,3,-10,13,-13,-2,-5,11
414,5,5,-13,12,-12,-1,-5,12
415,4,4,-11,11,-13,2,-5,12
416,3,0,-5,9,-14,7,-6,9
417,1,-3,0,8,-16,11,-7,7
418,1,-5,2,7,-18,12,-8,5
419,1,-7,1,7,-20,11,-8,3
420,1,-9,1,7,-21,10,-9,0
421,1,-11,3,7,-22,9,-9,-2
422,2,-12,6,7,-21,8,-9,-3
423,2,-12,9,8,-19,7,-8,-3
424,3,-12,9,9,-17,6,-8,-2
425,4,-13,7,9,-17,6,-6,-1
426,6,-13,3,10,-17,6,-5,-2
427,7,-14,-2,10,-19,7,-3,-3
428,8,-13,-7,11,-21,7,-1,-2
429,9,-10,-11,13,-21,5,0,1
430,11,-6,-13,14,-20,3,2,5
431,13,-3,-14,16,-18,2,3,8
432,14,-3,-13,16,-17,3,3,9
433,15,-4,-10,17,-17,7,3,8
434,15,-5,-7,16,-17,11,3,7
435,14,-5,-6,15,-18,15,3,7
436,14,-4,-8,14,-18,17,2,7
437,14,-4,-8,13,-17,18,2,8
438,14,-4,-7,12,-16,17,2,8
439,15,-5,-6,11,-14,12,1,8
440,15,-7,-3,11,-12,8,1,8
441,14,-8,1,11,-11,6,-1,7
442,13,-9,2,11,-9,5,-1,6
443,11,-9,1,12,-8,4,-2,6
444,11,-10,1,13,-7,3,-2,6
445,10,-11,2,14,-7,2,-1,6
446,9,-12,3,15,-6,0,-2,7
447,9,-13,6,15,-5,-1,-2,7
448,9,-13,10,14,-5,1,-2,7
449,9,-12,11,14,-6,4,-3,8
450,9,-10,8,13,-7,7,-3,10
451,10,-7,1,12,-9,8,-3,12
452,11,-2,-9,12,-10,8,-3,15
453,12,1,-17,12,-10,6,-3,17
454,11,2,-20,12,-10,3,-4,17
455,10,2,-17,13,-10,1,-5,16
456,8,1,-13,13,-10,0,-6,14
457,7,0,-10,14,-10,0,-6,14
458,7,0,-10,14,-9,0,-5,13
459,7,0,-11,14,-8,1,-4,13
460,8,0,-11,14,-7,1,-3,12
461,10,-2,-7,13,-6,1,-1,10
462,11,-3,0,13,-5,1,1,8
463,13,-5,10,12,-5,2,2,7
464,13,-5,20,12,-4,4,3,6
465,13,-4,29,13,-4,6,4,7
466,13,-1,39,13,-3,6,5,10
467,12,5,47,14,-2,6,5,16
468,12,10,46,13,1,7,5,22
469,12,14,34,13,3,8,5,25
470,13,14,15,12,5,9,4,24
471,14,11,-5,10,4,8,4,19
472,16,6,-21,9,3,7,4,12
473,16,1,-26,7,1,5,3,6
474,17,-3,-20,5,0,4,3,2
475,18,-4,-9,4,0,6,4,2
476,19,-3,1,3,2,9,4,4
477,20,-2,8,1,4,12,5,6
478,20,-1,12,0,5,13,5,7
479,19,1,16,0,6,13,5,8
480,18,3,20,0,7,13,5,10
481,17,6,22,0,9,14,6,12
482,16,9,23,0,11,15,6,16
483,15,10,23,-1,13,16,5,18
484,14,9,25,-1,14,18,5,20
485,14,9,27,-2,15,20,4,21
486,13,8,31,-3,15,24,3,21
487,12,5,33,-4,14,27,2,19
488,11,1,35,-5,12,29,1,17
489,10,-3,35,-6,10,30,-1,13
490,8,-7,34,-6,6,31,-3,9
491,7,-10,33,-7,1,32,-5,5
492,6,-12,32,-7,-4,33,-5,2
493,5,-11,29,-7,-8,34,-5,1
494,5,-8,23,-7,-11,33,-5,1
495,5,-4,17,-7,-12,29,-5,3
496,4,0,11,-7,-11,24,-4,5
497,4,4,7,-7,-9,17,-4,8
498,5,5,5,-7,-5,12,-4,10
499,5,5,6,-7,-2,9,-4,12
500,6,4,7,-7,1,8,-5,13
501,6,1,10,-7,3,8,-6,13
502,6,-2,13,-7,4,8,-6,12
503,6,-4,15,-7,4,9,-7,11
504,7,-5,16,-7,4,9,-7,10
505,7,-5,14,-7,4,9,-6,11
506,8,-4,10,-6,3,7,-6,12
507,9,-2,5,-6,2,6,-5,14
508,9,1,2,-6,1,6,-4,16
509,9,4,3,-6,1,7,-4,17
510,7,5,6,-6,2,10,-5,17
511,5,7,10,-7,2,14,-5,16
512,3,8,14,-7,3,19,-6,14
513,2,10,19,-8,3,23,-5,13
514,1,10,22,-8,4,24,-5,12
515,1,10,22,-7,5,23,-4,13
516,1,11,17,-7,7,20,-4,16
517,1,12,9,-7,9,16,-3,18
518,2,11,3,-7,11,13,-3,19
519,3,8,-1,-6,10,12,-3,17
520,3,3,-1,-6,6,14,-3,12
521,3,-6,3,-6,0,17,-3,5
522,3,-14,7,-6,-7,18,-3,-3
523,2,-19,7,-5,-13,13,-4,-9
524,3,-21,3,-5,-17,7,-5,-11
525,3,-19,-2,-5,-18,2,-5,-11
526,4,-17,-4,-4,-16,-1,-5,-10
527,4,-15,-2,-3,-14,0,-4,-9
528,5,-14,3,-2,-12,5,-4,-8
529,5,-13,8,-2,-10,11,-4,-6
530,6,-12,10,-2,-7,14,-4,-4
531,6,-11,11,-2,-4,14,-4,-1
532,6,-10,10,-2,-2,13,-4,1
533,5,-9,7,-1,1,12,-5,3
534,4,-7,4,-1,2,12,-5,3
535,3,-4,1,0,3,13,-5,4
536,2,-2,0,1,3,14,-4,4
537,1,-2,2,1,1,16,-4,3
538,0,-4,4,0,-2,20,-4,0
539,0,-7,7,-1,-6,23,-4,-3
540,0,-11,7,-1,-12,25,-3,-7
541,1,-16,6,-2,-18,25,-3,-10
542,2,-18,2,-2,-23,24,-2,-12
543,3,-19,-3,-2,-26,22,-1,-13
544,4,-20,-7,-2,-29,20,0,-14
545,5,-21,-9,-1,-30,19,1,-14
546,5,-21,-11,-1,-30,18,1,-14
547,4,-21,-13,0,-27,16,0,-13
548,3,-20,-12,1,-23,14,0,-12
549,2,-20,-7,1,-19,13,-1,-10
550,1,-19,-1,2,-13,14,-2,-9
551,-1,-18,4,2,-7,15,-4,-6
552,-2,-16,9,2,-1,15,-5,-3
553,-3,-13,11,2,4,15,-7,0
554,-3,-10,12,2,8,14,-8,4
555,-3,-7,12,2,10,14,-9,7
556,-2,-5,13,2,11,16,-8,8
557,-1,-4,13,2,9,20,-8,8
558,1,-5,11,2,5,24,-6,6
559,3,-5,8,2,1,27,-3,3
560,5,-7,4,2,-3,27,-1,0
561,6,-7,-3,2,-6,25,0,-2
562,7,-7,-7,3,-7,22,1,-3
563,7,-8,-8,3,-8,20,1,-5
564,7,-10,-8,4,-8,19,1,-7
565,7,-12,-8,5,-8,18,1,-9
566,7,-13,-8,6,-9,18,1,-10
567,7,-14,-8,6,-8,16,0,-11
568,6,-13,-10,6,-6,12,0,-11
569,4,-11,-13,6,-2,9,-1,-9
570,2,-8,-12,5,2,6,-2,-7
571,0,-6,-9,4,5,4,-3,-5
572,-2,-5,-6,3,8,2,-5,-2
573,-4,-2,-7,2,9,0,-7,1
574,-6,-1,-11,1,8,-2,-8,2
575,-7,-2,-14,0,5,-2,-9,2
576,-8,-5,-17,-1,0,-1,-9,-1
577,-9,-11,-18,-2,-6,2,-9,-6
578,-9,-18,-16,-3,-12,6,-9,-12
579,-8,-25,-12,-4,-18,10,-9,-18
580,-6,-29,-8,-3,-23,14,-8,-22
581,-4,-29,-8,-2,-28,18,-7,-24
582,-3,-26,-10,-1,-30,18,-6,-23
583,-3,-23,-13,0,-29,14,-5,-20
584,-4,-20,-15,1,-25,8,-6,-18
585,-6,-18,-16,2,-21,2,-7,-16
586,-9,-14,-19,2,-17,-5,-9,-13
587,-12,-11,-21,2,-13,-11,-11,-10
588,-15,-8,-23,2,-10,-16,-12,-8
589,-17,-5,-24,1,-10,-17,-13,-6
590,-18,-3,-25,1,-9,-18,-15,-4
591,-18,-3,-24,0,-7,-18,-16,-2
592,-19,-4,-20,0,-6,-16,-17,-2
593,-19,-6,-14,1,-6,-12,-19,-3
594,-19,-8,-9,2,-7,-7,-19,-4
595,-19,-10,-6,2,-8,-3,-19,-5
596,-18,-13,-4,2,-10,2,-19,-5
597,-17,-16,-2,2,-12,4,-18,-6
598,-15,-18,-4,2,-14,3,-16,-6
599,-13,-18,-7,2,-14,0,-13,-5
600,-10,-19,-12,2,-14,-5,-10,-4
601,-7,-19,-14,3,-13,-10,-8,-3
602,-4,-19,-14,4,-11,-12,-7,-4
603,-3,-19,-11,5,-10,-11,-6,-5
604,-2,-17,-12,6,-8,-10,-5,-5
605,-1,-12,-16,8,-6,-11,-5,-3
606,-1,-8,-20,9,-3,-15,-4,0
607,-1,-4,-23,10,-1,-18,-5,2
608,-2,-3,-23,10,1,-18,-5,2
609,-4,-4,-20,8,1,-17,-7,0
610,-5,-8,-13,6,-1,-14,-9,-3
611,-6,-10,-9,4,-3,-12,-11,-6
612,-6,-11,-9,3,-6,-11,-12,-6
613,-6,-11,-11,1,-9,-11,-12,-6
614,-5,-12,-11,-1,-12,-9,-12,-8
615,-5,-14,-8,-2,-17,-5,-11,-10
616,-6,-16,-5,-3,-21,-2,-11,-13
617,-7,-19,-3,-4,-23,-2,-10,-15
618,-7,-21,-1,-4,-24,-4,-10,-16
619,-7,-23,0,-3,-24,-6,-9,-17
620,-6,-25,2,-2,-25,-6,-9,-17
621,-5,-26,4,-1,-25,-3,-8,-17
622,-4,-25,6,-1,-25,0,-7,-14
623,-3,-23,5,0,-24,1,-7,-11
624,-3,-20,1,1,-23,-1,-6,-8
625,-2,-17,-7,2,-20,-5,-5,-5
626,-2,-13,-13,3,-17,-10,-5,-3
627,-1,-10,-16,4,-16,-11,-5,-1
628,-1,-8,-14,4,-14,-10,-5,-1
629,-1,-8,-8,5,-14,-9,-5,-2
630,-2,-9,-2,5,-15,-7,-5,-4
631,-4,-10,5,4,-17,-7,-6,-6
632,-5,-12,9,4,-18,-6,-6,-9
633,-6,-14,12,3,-19,-5,-7,-11
634,-7,-14,13,2,-20,-3,-7,-12
635,-7,-13,14,1,-20,0,-7,-12
636,-7,-12,15,0,-20,2,-6,-11
637,-8,-12,17,0,-19,4,-6,-11
638,-8,-13,18,0,-17,6,-7,-11
639,-8,-13,20,0,-16,6,-7,-11
640,-9,-13,20,1,-14,5,-8,-10
641,-9,-11,18,1,-12,4,-8,-8
642,-8,-10,16,1,-11,3,-9,-6
643,-7,-10,14,1,-11,3,-8,-6
644,-6,-9,14,2,-11,3,-8,-5
645,-5,-7,12,3,-11,3,-7,-3
646,-5,-3,9,3,-10,1,-6,-1
647,-5,1,5,3,-8,-2,-5,3
648,-6,5,1,3,-7,-4,-5,6
649,-6,7,-3,3,-5,-6,-5,8
650,-6,7,-4,2,-4,-5,-6,8
651,-5,6,-3,2,-4,-4,-6,7
652,-5,6,0,1,-4,-2,-7,7
653,-4,7,2,1,-3,-2,-7,8
654,-4,10,1,1,-2,-3,-6,10
655,-3,12,0,2,-1,-4,-5,12
656,-2,12,0,4,0,-4,-4,12
657,-1,11,0,5,2,-4,-3,12
658,-1,10,0,6,3,-4,-2,11
659,-1,10,0,7,4,-3,-2,11
660,-1,10,1,8,5,-2,-2,12
661,-2,9,4,7,4,0,-3,11
662,-3,8,8,7,2,3,-4,10
663,-4,6,11,6,-1,6,-5,7
664,-5,4,14,5,-2,8,-6,6
665,-5,4,14,5,-3,8,-6,6
666,-5,5,11,4,-3,8,-7,7
667,-5,7,8,3,-2,9,-7,9
668,-5,8,5,2,-1,10,-8,10
669,-4,8,2,2,-1,11,-8,10
670,-3,8,0,2,-1,12,-9,8
671,-2,8,-3,3,-1,11,-8,8
672,-2,9,-5,4,0,9,-7,9
673,-1,10,-6,6,0,6,-6,10
674,1,10,-4,7,0,4,-4,10
675,2,11,-1,9,0,2,-2,11
676,2,12,1,10,0,1,-1,11
677,2,12,2,10,0,1,0,11
678,2,13,2,10,0,1,-1,11
679,1,13,1,9,1,2,-1,12
680,0,13,0,9,1,2,-2,12
681,0,13,1,8,1,4,-3,12
682,-1,10,4,7,-1,6,-3,10
683,0,7,8,6,-2,7,-3,7
684,1,5,9,6,-3,8,-2,5
685,2,3,7,6,-2,7,-2,4
686,3,3,3,7,-1,6,-2,4
687,4,4,-3,7,0,4,-2,5
688,4,6,-9,8,2,2,-2,7
689,5,8,-12,8,3,1,-1,9
690,5,9,-14,8,4,2,-1,11
691,5,9,-13,8,3,2,-1,12
692,4,8,-11,7,2,3,-2,12
693,4,7,-7,6,0,4,-2,11
694,3,6,-3,5,-2,4,-3,9
695,3,6,-1,4,-3,4,-4,8
696,3,5,0,4,-3,4,-4,8
697,4,5,-1,4,-3,4,-4,8
698,5,5,-2,4,-2,5,-4,10
699,5,5,-2,4,-3,5,-4,10
700,5,3,2,3,-4,7,-4,10
701,4,1,6,1,-5,9,-5,8
702,3,-1,9,0,-6,11,-6,6
703,2,-2,9,-2,-7,13,-7,4
704,2,-3,9,-3,-6,15,-8,3
705,2,-3,10,-3,-4,17,-8,3
706,3,-1,12,-3,-2,18,-8,3
707,4,0,13,-2,0,19,-7,4
708,5,2,15,-1,3,19,-6,6
709,6,3,16,1,4,18,-5,7
710,7,4,16,2,5,18,-4,6
711,8,3,17,3,5,19,-3,5
712,8,1,16,4,3,20,-2,2
713,8,1,15,4,1,19,-1,1
714,8,0,13,5,0,17,0,0
715,9,1,12,6,-1,14,2,0
716,10,2,8,6,-1,11,3,3
717,11,4,2,6,1,7,4,6
718,11,6,-5,6,3,2,4,9
719,11,6,-10,6,5,-1,4,11
720,11,6,-14,7,5,-3,4,12
721,11,6,-13,7,5,-4,4,13
722,11,6,-9,7,3,-4,5,12
723,11,6,-3,7,1,-2,5,12
724,11,6,1,7,-1,0,6,12
725,11,8,2,6,-2,0,6,14
726,11,10,1,5,-1,-2,5,16
727,10,11,1,5,1,-5,5,17
728,10,10,3,4,2,-7,5,17
729,9,9,8,4,4,-7,5,16
730,10,7,12,4,5,-6,5,13
731,10,7,12,3,6,-4,5,11
732,11,9,8,3,6,-2,5,10
733,12,12,4,4,6,-1,5,11
734,13,15,-1,5,7,-2,6,13
735,14,17,-5,6,8,-3,8,15
736,15,18,-5,7,9,-5,9,16
737,15,17,-3,7,10,-6,9,14
738,15,14,1,8,11,-6,9,13
739,14,12,3,8,11,-5,8,12
740,14,11,5,8,11,-5,8,12
741,13,10,7,7,12,-4,7,14
742,13,9,9,7,12,-5,7,14
743,13,8,10,7,13,-5,7,15
744,14,8,8,7,12,-6,7,15
745,14,7,7,6,11,-6,7,14
746,14,6,6,6,9,-3,7,12
747,13,4,7,5,6,-1,7,10
748,12,2,6,5,5,0,6,8
749,10,2,4,4,3,0,6,7
750,9,2,3,4,3,-1,7,7
751,8,3,3,4,3,-1,6,6
752,7,4,4,3,3,1,6,6
753,7,6,6,3,4,2,6,6
754,7,8,6,3,5,3,6,7
755,7,11,3,3,7,1,6,9
756,8,14,-1,3,10,-3,6,12
757,9,16,-5,3,11,-6,6,14
758,10,16,-8,3,13,-9,7,15
759,10,15,-8,3,13,-11,7,14
760,9,14,-6,3,13,-11,6,13
761,9,12,-3,4,13,-10,6,11
762,8,12,-1,4,12,-8,5,10
763,8,11,2,3,9,-4,4,8
764,6,9,7,3,6,1,3,6
765,5,7,11,2,4,3,2,4
766,4,6,12,2,3,2,2,3
767,3,6,9,2,4,-1,2,5
768,2,7,5,3,4,-4,2,6
769,2,9,2,4,4,-5,2,8
770,2,10,2,4,3,-4,2,8
771,1,10,4,4,2,-1,1,7
772,1,9,7,4,2,2,0,5
773,0,8,10,4,3,4,0,3
774,0,6,14,4,4,6,0,2
775,1,5,16,5,5,7,0,1
776,2,5,16,6,5,8,1,1
777,3,7,13,6,5,9,2,3
778,3,9,8,7,5,8,2,5
779,4,10,2,7,5,6,3,7
780,4,11,-4,6,6,3,3,9
781,5,11,-7,6,7,-1,3,10
782,5,10,-6,6,8,-4,3,10
783,6,9,-3,5,9,-6,2,10
784,5,8,1,5,10,-6,2,9
785,5,8,5,5,10,-5,2,9
786,5,8,8,5,10,-3,2,9
787,5,8,11,5,10,-1,2,8
788,6,8,12,5,8,1,2,8
789,6,7,13,4,6,2,2,7
790,7,5,13,2,5,2,2,5
791,7,3,14,0,5,2,1,4
792,7,1,13,-1,5,1,1,2
793,8,-1,13,-2,4,1,1,1
794,8,-2,13,-3,3,2,1,0
795,8,-4,14,-4,1,4,1,-1
796,7,-6,14,-4,-1,6,0,-2
797,7,-8,16,-5,-2,8,-1,-3
798,7,-8,15,-6,-3,8,-1,-2
799,7,-6,11,-6,-3,6,-1,-1
800,7,-3,6,-7,-3,4,0,1
801,7,-1,4,-7,-4,4,1,1
802,7,-1,6,-6,-3,5,1,0
803,6,-1,7,-6,-2,6,1,0
804,6,0,7,-4,0,6,1,2
805,7,2,4,-3,2,4,2,5
806,6,4,-1,-2,4,2,1,8
807,5,7,-6,-2,6,0,1,10
808,4,9,-8,-2,7,-2,0,11
809,3,9,-5,-2,7,0,-1,9
810,2,7,1,-3,7,3,-2,6
811,2,5,4,-4,7,5,-2,3
812,3,5,2,-4,6,5,0,2
813,4,6,1,-4,5,5,1,2
814,4,8,2,-2,4,6,2,2
815,5,10,6,-1,3,6,2,3
816,5,12,8,1,4,5,2,5
817,6,13,8,3,5,1,2,7
818,6,14,7,3,6,-3,2,7
819,6,13,6,4,6,-7,2,6
820,6,11,4,4,7,-10,1,7
821,5,10,4,5,8,-11,1,8
822,5,8,5,5,8,-11,1,9
823,4,6,8,5,9,-11,1,9
824,3,4,11,4,9,-10,1,8
825,2,2,13,3,9,-9,0,7
826,1,-1,14,2,8,-8,-1,4
827,0,-2,14,1,6,-7,-2,2
828,-1,-3,12,0,5,-6,-3,2
829,0,-2,9,-1,4,-6,-3,3
830,1,0,7,-1,3,-6,-3,4
831,1,0,7,-1,3,-4,-3,5
832,2,1,6,-1,3,-2,-3,7
833,2,2,5,0,3,1,-2,9
834,3,3,3,1,3,1,-2,10
835,3,5,0,2,4,-1,-2,12
836,4,7,-3,2,6,-4,-2,15
837,4,8,-5,3,7,-9,-2,17
838,3,8,-4,3,8,-13,-3,17
839,3,5,-2,3,7,-15,-4,16
840,2,2,1,3,6,-14,-5,12
841,1,-2,4,3,3,-12,-5,7
842,1,-4,7,3,0,-9,-5,3
843,0,-6,9,3,-2,-7,-4,-1
844,0,-5,8,3,-5,-5,-3,-2
845,0,-5,8,2,-7,-3,-2,-4
846,0,-6,8,1,-9,-1,-1,-6
847,0,-7,10,1,-11,2,-1,-7
848,1,-8,12,0,-10,3,-1,-8
849,2,-8,11,0,-9,3,-1,-7
850,4,-6,7,1,-6,1,-1,-5
851,6,-4,2,2,-4,-3,0,-2
852,7,-2,-2,3,-3,-5,1,1
853,8,2,-3,4,-3,-6,2,4
854,8,5,-3,5,-2,-7,2,7
855,7,8,-2,5,-3,-6,2,9
856,6,10,-1,5,-2,-5,1,11
857,6,11,-1,5,-1,-6,1,12
858,5,11,-1,4,2,-8,1,12
859,5,9,0,3,5,-11,1,12
860,6,7,2,3,8,-12,1,12
861,6,5,3,2,11,-13,1,12
862,6,4,4,2,12,-12,1,11
863,6,3,5,2,11,-8,0,8
864,5,3,7,1,9,-3,-1,6
865,5,2,9,0,7,0,-1,4
866,5,2,10,-1,6,1,-1,3
867,6,0,12,-3,4,2,-1,1
868,7,-3,13,-4,2,3,-1,-2
869,8,-5,14,-4,0,4,0,-5
870,9,-6,13,-3,-1,4,1,-7
871,9,-7,11,-2,-2,3,2,-8
872,9,-6,8,-1,-2,2,3,-8
873,9,-4,5,1,-1,0,3,-5
874,9,-1,3,2,1,-1,4,-2
875,10,1,3,2,3,-2,4,1
876,10,3,3,2,4,-3,4,4
877,10,4,3,1,5,-5,4,6
878,10,5,1,1,6,-7,5,7
879,10,5,-1,1,6,-9,5,8
880,10,4,-1,2,7,-10,4,8
881,10,3,1,3,7,-11,4,8
882,10,2,5,3,7,-11,4,9
883,10,0,9,4,7,-10,3,9
884,10,-3,12,3,7,-9,3,9
885,9,-5,13,2,7,-7,3,8
886,9,-6,12,1,7,-7,3,7
887,9,-7,11,1,7,-7,3,6
888,9,-6,9,0,8,-8,4,6
889,9,-3,6,1,9,-9,4,8
890,9,1,2,1,10,-11,5,9
891,9,4,-2,2,10,-13,6,11
892,9,6,-6,3,10,-14,7,12
893,10,7,-9,4,10,-14,7,13
894,10,8,-8,5,10,-13,8,14
895,10,8,-5,5,10,-11,8,14
896,9,6,1,5,9,-8,7,12
897,8,5,6,4,8,-5,6,11
898,7,3,10,4,7,-4,5,10
899,7,3,11,4,7,-4,4,11
900,7,3,11,4,7,-5,4,11
901,7,3,10,3,8,-5,3,12
902,6,3,10,3,9,-6,3,12
903,6,3,10,2,9,-7,3,11
904,5,1,11,2,8,-7,2,9
905,5,-2,12,3,6,-6,2,5
906,5,-5,14,3,4,-3,2,2
907,5,-6,15,3,3,-1,1,-1
908,4,-4,12,2,2,1,1,-1
909,4,-1,7,1,1,1,0,1
910,4,1,2,0,0,-1,-1,3
911,4,2,-1,0,-1,-2,-1,5
912,5,2,-1,0,0,-3,-1,5
913,5,-1,3,1,1,-3,0,5
914,5,-2,5,1,2,-1,0,4
915,5,-3,5,1,4,-1,-1,4
916,4,-1,2,1,4,-1,-1,6
917,4,-1,-1,0,4,-3,-1,8
918,4,-2,-2,1,2,-5,0,8
919,5,-5,0,1,0,-6,0,6
920,5,-9,4,1,-2,-6,0,2
921,5,-14,6,1,-5,-5,0,-3
922,5,-16,5,1,-7,-4,0,-6
923,4,-17,2,2,-8,-4,0,-7
924,4,-16,0,2,-9,-3,0,-7
925,4,-15,-1,3,-9,-2,0,-6
926,4,-13,-2,3,-9,-1,-1,-4
927,4,-12,0,2,-10,1,-2,-3
928,4,-12,2,1,-11,3,-2,-4
929,3,-12,4,-1,-11,5,-3,-4
930,2,-13,6,-2,-9,4,-4,-4
931,2,-12,6,-3,-7,2,-4,-3
932,1,-10,5,-3,-4,1,-4,0
933,1,-8,4,-3,-1,0,-4,2
934,1,-6,3,-2,2,0,-3,4
935,1,-3,3,-1,4,-1,-2,6
936,1,-2,3,0,5,-2,-1,7
937,1,-1,3,1,6,-3,-1,8
938,1,-1,2,2,6,-4,0,8
939,1,0,0,3,4,-5,0,7
940,0,0,-1,4,2,-4,-1,6
941,-1,-1,0,4,-1,-4,-1,3
942,-2,-2,4,3,-3,-2,-2,-1
943,-3,-3,8,3,-3,-1,-2,-4
944,-3,-3,11,3,-3,0,-2,-5
945,-3,-2,11,3,-2,1,-2,-4
946,-2,0,10,3,-1,3,-2,-2
947,0,2,9,3,1,4,-2,1
948,1,1,8,3,2,4,-2,3
949,1,-1,9,2,4,3,-3,4
950,1,-3,13,1,6,3,-4,4
951,0,-5,17,0,7,3,-6,4
952,-1,-4,18,-1,8,3,-7,5
953,-1,-2,17,-2,9,3,-8,7
954,-1,2,17,-2,8,5,-8,8
955,0,4,17,-2,7,7,-8,9
956,1,5,17,-1,5,10,-8,9
957,1,6,18,0,4,11,-7,10
958,1,6,19,1,4,11,-6,11
959,1,7,17,2,5,9,-5,13
960,2,8,11,3,6,5,-4,16
961,2,10,5,3,7,2,-4,18
962,1,9,2,3,6,1,-4,18
963,1,9,1,3,5,0,-5,16
964,1,8,1,2,4,0,-6,14
965,1,7,1,1,2,0,-6,13
966,1,6,1,0,1,0,-6,11
967,2,6,-1,0,1,-1,-5,12
968,2,6,-2,0,0,-2,-4,12
969,2,5,0,0,-1,-2,-4,13
970,1,3,4,0,-2,-2,-3,12
971,0,1,8,0,-3,-1,-3,10
972,0,0,7,0,-4,0,-3,9
973,-1,2,2,0,-4,1,-3,9
974,-2,5,-3,0,-4,1,-3,11
975,-2,7,-5,0,-3,2,-3,12
976,-4,8,-4,0,-2,2,-3,13
977,-5,10,-3,0,-1,0,-3,15
978,-6,11,-1,-1,1,-2,-3,16
979,-6,12,3,-1,2,-2,-3,17
980,-6,11,6,-2,4,-2,-3,16
981,-5,10,10,-2,6,-1,-3,16
982,-4,9,13,-1,8,1,-3,15
983,-3,8,14,-1,10,2,-2,15
984,-1,8,13,-2,11,4,-1,15
985,0,10,10,-2,11,5,0,16
986,1,13,5,-3,10,7,1,16
987,2,13,3,-3,8,8,1,15
988,2,11,3,-4,6,10,1,12
989,1,7,6,-4,4,11,0,10
990,-1,5,8,-4,3,13,-1,8
991,-2,5,9,-4,2,13,-2,8
992,-3,6,8,-4,2,13,-3,9
993,-4,7,7,-3,3,13,-4,11
994,-5,7,5,-3,4,11,-4,12
995,-5,7,3,-3,6,8,-4,12
996,-6,6,3,-3,7,5,-3,12
997,-6,3,5,-3,8,3,-3,11
998,-6,0,8,-3,9,3,-2,9
999,-6,-3,10,-3,10,3,-2,7
1000,-5,-5,12,-4,10,4,-1,4
1001,-4,-6,14,-4,10,5,-1,2
1002,-3,-5,14,-4,8,6,0,1
1003,-3,-2,12,-3,6,6,1,1
1004,-2,2,7,-3,3,6,1,2
1005,-1,4,2,-2,2,4,1,3
1006,0,4,-2,-2,1,2,1,3
1007,1,2,-3,-2,1,0,0,1
1008,0,-2,1,-3,1,-1,0,-1
1009,-1,-5,6,-4,1,-1,0,-2
1010,-1,-6,9,-5,2,-1,-1,-2
1011,-2,-5,9,-6,3,-1,-1,0
1012,-1,-2,7,-7,4,-1,-1,2
1013,-1,0,4,-7,6,-2,-1,4
1014,0,1,3,-7,7,-2,-1,6
1015,1,0,4,-7,8,-2,-1,6
1016,1,-1,7,-7,9,-2,-1,6
1017,1,-2,10,-6,10,-2,-2,6
1018,1,-2,12,-5,11,-2,-1,6
1019,1,-2,13,-4,11,-2,0,7
1020,2,-1,14,-4,11,-1,1,9
1021,3,-1,14,-4,11,1,2,10
1022,4,0,15,-3,12,3,2,11
1023,4,3,15,-4,13,5,2,13
1024,4,5,16,-4,14,6,2,14
1025,3,8,17,-4,14,8,1,16
1026,3,10,19,-4,13,10,1,16
1027,3,11,19,-4,12,11,2,16
1028,3,10,18,-4,10,12,2,14
1029,2,10,16,-4,9,13,2,12
1030,3,10,15,-4,8,12,2,11
1031,3,10,14,-3,8,12,2,10
1032,2,9,15,-3,8,12,2,9
1033,2,7,17,-2,8,13,3,7
1034,1,4,19,-2,8,13,3,4
1035,0,0,20,-2,7,12,3,0
1036,0,-3,21,-2,6,10,3,-3
1037,0,-4,20,-2,6,7,3,-4
1038,1,-4,18,-2,6,4,4,-4
1039,2,-3,16,-2,7,1,4,-2
1040,2,-1,16,-1,9,-2,5,0
1041,3,-2,17,-1,11,-3,6,2
1042,3,-3,19,-2,11,-2,6,3
1043,4,-3,17,-3,11,0,6,4
1044,4,-2,10,-3,9,1,6,6
1045,4,1,1,-3,8,-1,6,8
1046,4,4,-8,-3,7,-4,7,11
1047,4,6,-13,-3,6,-6,7,14
1048,3,6,-12,-2,6,-7,7,15
1049,3,4,-6,-2,5,-5,6,14
1050,3,1,3,-1,5,-1,6,12
1051,3,-1,10,0,4,3,7,10
1052,3,-1,13,0,4,5,8,10
1053,4,-1,14,1,4,6,9,10
1054,4,0,14,1,5,5,9,10
1055,4,-1,14,1,5,4,8,9
1056,4,-2,14,2,5,2,7,8
1057,4,-3,13,2,6,0,6,7
1058,4,-2,13,3,7,-1,6,6
1059,4,-2,15,4,8,-2,5,6
1060,4,-2,18,4,8,-1,5,5
1061,4,-1,19,4,7,0,5,5
1062,3,1,19,4,6,2,4,5
1063,3,3,19,3,5,4,4,5
1064,3,4,17,2,5,5,3,6
1065,3,4,15,1,6,6,2,6
1066,3,3,13,0,7,7,1,6
1067,3,2,13,-1,8,8,0,5
1068,3,2,13,-1,8,9,-2,5
1069,3,2,14,-1,9,9,-2,5
1070,3,2,15,0,10,10,-3,5
1071,3,4,15,0,10,11,-3,5
1072,3,5,14,1,10,11,-2,5
1073,4,7,11,1,9,12,-2,5
1074,4,9,6,1,8,11,-1,5
1075,5,11,2,1,9,9,0,6
1076,6,12,1,2,10,6,2,8
1077,7,13,0,3,11,2,3,11
1078,8,13,0,5,12,-2,5,13
1079,9,12,1,5,12,-4,5,14
1080,9,10,2,5,10,-5,5,13
1081,8,8,3,5,7,-3,3,11
1082,7,5,4,4,4,-1,1,7
1083,5,2,4,3,0,1,0,4
1084,4,-1,5,3,-4,3,-1,1
1085,3,-4,6,3,-6,4,-1,-1
1086,3,-6,7,3,-8,6,-1,-2
1087,2,-8,8,2,-10,7,-1,-3
1088,1,-10,10,1,-11,9,-1,-5
1089,1,-11,11,1,-11,11,-1,-5
1090,1,-11,10,0,-11,12,-1,-5
1091,1,-10,6,0,-10,12,0,-4
1092,2,-8,3,0,-10,12,0,-4
1093,2,-6,0,0,-10,12,0,-4
1094,2,-5,0,0,-10,12,0,-5
1095,1,-4,3,0,-10,11,0,-6
1096,2,-4,5,0,-9,11,1,-7
1097,2,-4,7,0,-8,11,1,-7
1098,3,-3,6,1,-8,11,1,-6
1099,3,-2,3,2,-7,10,1,-3
1100,3,-1,-1,2,-6,8,0,0
1101,3,0,-4,3,-5,5,0,3
1102,4,0,-6,3,-4,3,0,6
1103,4,0,-7,4,-2,1,0,9
1104,6,0,-6,4,-1,-1,1,11
1105,7,-1,-6,3,1,0,1,12
1106,7,-2,-4,3,1,1,1,12
1107,7,-3,-2,2,2,2,2,11
1108,7,-5,-1,2,2,2,2,10
1109,7,-6,0,2,1,3,2,7
1110,7,-6,1,2,-1,5,2,5
1111,7,-5,3,2,-3,5,2,3
1112,7,-4,5,3,-3,5,2,1
1113,7,-3,8,3,-3,5,2,1
1114,7,-1,10,4,-1,6,2,2
1115,7,2,9,4,1,8,3,3
1116,7,4,7,5,3,8,4,5
1117,8,6,2,5,5,7,5,6
1118,9,9,-3,5,7,5,5,8
1119,9,12,-8,5,9,3,5,10
1120,8,15,-11,4,10,2,3,11
1121,8,16,-12,3,11,0,1,12
1122,6,16,-11,2,11,1,-1,12
1123,5,13,-9,1,9,2,-4,11
1124,4,10,-6,0,7,4,-6,7
1125,3,6,-5,-1,3,5,-7,4
1126,2,4,-6,-1,0,7,-6,0
1127,1,3,-7,-2,-2,7,-6,-2
1128,0,4,-9,-2,-4,7,-6,-3
1129,0,4,-7,-2,-5,6,-6,-4
1130,-1,2,-4,-1,-5,6,-6,-5
1131,-1,-1,0,0,-5,5,-7,-6
1132,-2,-3,0,1,-5,4,-7,-6
1133,-3,-5,-4,1,-4,2,-6,-6
1134,-4,-6,-9,1,-4,-1,-5,-6
1135,-4,-7,-11,1,-4,-3,-5,-6
1136,-3,-8,-9,0,-4,-4,-4,-6
1137,-2,-9,-6,-1,-3,-3,-4,-8
1138,-2,-10,-3,-2,-2,-1,-3,-9
1139,0,-9,-2,-3,-1,1,-3,-10
1140,1,-7,-5,-3,0,1,-2,-9
1141,1,-5,-7,-3,0,1,-2,-9
1142,0,-4,-7,-4,0,1,-3,-9
1143,-1,-4,-5,-4,-1,3,-3,-10
1144,-3,-3,-5,-5,-3,4,-4,-11
1145,-4,-2,-6,-6,-5,5,-4,-11
1146,-5,-1,-8,-6,-6,3,-5,-11
1147,-4,-1,-10,-5,-7,0,-5,-10
1148,-4,-3,-10,-4,-7,-3,-5,-11
1149,-2,-5,-9,-3,-7,-6,-4,-11
1150,-1,-6,-9,-1,-7,-7,-3,-12
1151,-1,-6,-9,0,-7,-7,-2,-12
1152,-1,-4,-11,2,-8,-6,-1,-11
1153,-1,0,-15,2,-9,-6,-1,-9
1154,-1,3,-17,2,-9,-6,0,-6
1155,-1,4,-16,1,-10,-5,-1,-5
1156,-1,3,-13,-1,-11,-2,-1,-5
1157,-1,0,-9,-2,-12,1,-2,-7
1158,-1,-3,-5,-3,-14,5,-4,-9
1159,-2,-5,-2,-4,-14,7,-5,-10
1160,-3,-6,-1,-4,-14,8,-6,-10
1161,-4,-4,-3,-3,-12,9,-7,-8
1162,-5,-1,-5,-3,-10,8,-7,-7
1163,-7,1,-7,-3,-9,8,-7,-6
1164,-9,4,-8,-3,-9,8,-7,-7
1165,-18,9,-7,-3,-10,8,-7,-11
1166,-33,22,-7,-3,-12,8,-7,-15
1167,-55,41,-7,-3,-14,7,-7,-17
1168,-76,63,-5,-2,-13,6,-7,-17
1169,-94,83,-3,-1,-11,5,-7,-15
1170,-104,97,-1,1,-7,4,-5,-11
1171,-106,103,1,2,-3,2,-3,-7
1172,-101,102,2,3,0,1,-2,-4
1173,-95,99,2,4,2,1,0,-1
1174,-91,97,1,5,3,-1,2,0
1175,-89,96,-2,5,4,-2,3,1
1176,-86,95,-4,6,5,-4,4,1
1177,-84,93,-5,6,5,-5,4,1
1178,-82,92,-6,7,5,-5,3,1
1179,-81,92,-6,7,4,-5,2,1
1180,-79,92,-7,6,4,-5,2,2
1181,-76,91,-9,6,4,-6,2,3
1182,-72,89,-10,6,4,-7,4,4
1183,-67,85,-10,6,3,-7,6,4
1184,-63,80,-9,6,4,-6,8,4
1185,-58,76,-7,7,4,-4,10,4
1186,-55,72,-6,6,5,-3,11,4
1187,-52,70,-8,6,5,-3,11,4
1188,-50,70,-11,6,5,-4,10,5
1189,-48,69,-16,5,5,-6,8,5
1190,-48,70,-20,5,5,-8,6,6
1191,-47,69,-23,5,4,-9,4,6
1192,-47,69,-21,4,3,-8,3,6
1193,-46,67,-17,4,2,-6,2,6
1194,-45,65,-12,3,0,-3,2,5
1195,-44,63,-8,1,-2,1,2,3
1196,-43,60,-6,0,-3,1,1,3
1197,-42,57,-7,-1,-3,-1,1,3
1198,-41,55,-11,-1,-1,-4,1,5
1199,-39,53,-15,-1,1,-8,1,7
1200,-37,50,-17,-1,2,-9,1,10
1201,-34,47,-16,-1,3,-7,2,11
1202,-32,41,-12,-2,2,-4,2,10
1203,-30,37,-8,-2,1,-1,3,9
1204,-27,35,-6,-2,1,0,4,9
1205,-25,35,-6,-2,1,0,6,10
1206,-23,37,-6,-1,2,-1,7,12
1207,-21,39,-7,-1,3,-2,7,14
1208,-21,42,-8,-1,4,-3,6,16
1209,-21,41,-7,-2,5,-3,5,16
1210,-20,38,-4,-2,5,-2,3,14
1211,-20,35,0,-3,4,-1,2,12
1212,-19,31,2,-3,3,1,2,9
1213,-18,28,4,-2,2,2,3,7
1214,-16,27,3,-3,2,3,4,7
1215,-15,26,1,-3,3,3,5,8
1216,-14,27,-2,-3,5,1,6,10
1217,-14,30,-5,-2,8,-2,7,12
1218,-13,32,-7,-2,9,-5,8,14
1219,-14,32,-7,-2,9,-7,8,14
1220,-14,31,-6,-2,7,-8,8,13
1221,-14,26,-4,-2,5,-8,7,10
1222,-15,21,0,-3,3,-7,5,6
1223,-16,15,3,-4,2,-6,4,3
1224,-16,10,5,-5,1,-7,2,1
1225,-17,5,6,-5,-1,-7,1,-1
1226,-17,1,8,-5,-3,-6,0,-3
1227,-16,-4,9,-4,-5,-6,-1,-6
1228,-15,-7,8,-3,-7,-7,0,-7
1229,-13,-10,5,-2,-9,-7,1,-8
1230,-10,-12,2,-1,-10,-7,3,-8
1231,-6,-12,-2,-1,-11,-7,4,-7
1232,-3,-11,-6,-1,-11,-5,4,-5
1233,-1,-8,-8,-1,-12,-2,4,-2
1234,-1,-3,-8,-2,-12,0,2,1
1235,-2,3,-7,-3,-10,0,0,4
1236,-4,9,-7,-4,-8,-1,-2,6
1237,-6,13,-6,-5,-7,-2,-4,8
1238,-8,14,-3,-6,-6,-1,-5,6
1239,-9,12,3,-7,-6,2,-6,3
1240,-10,8,9,-7,-6,6,-6,-1
1241,-10,5,13,-7,-5,9,-7,-4
1242,-9,2,15,-7,-2,8,-8,-4
1243,-8,1,14,-7,1,6,-7,-3
1244,-7,1,11,-6,4,4,-6,-1
1245,-6,2,7,-5,6,1,-5,1
1246,-5,2,2,-4,7,-1,-3,1
1247,-4,2,0,-3,7,-2,-2,1
1248,-4,1,0,-3,7,-2,-2,0
1249,-5,-1,3,-3,6,-1,-2,-2
1250,-5,-4,6,-4,5,0,-1,-4
1251,-4,-6,7,-4,4,1,0,-4
1252,-3,-6,5,-3,4,1,2,-4
1253,0,-6,3,-2,4,0,4,-2
1254,2,-5,-1,-1,4,-2,5,1
1255,4,-3,-3,0,4,-3,6,3
1256,6,-3,-3,1,4,-3,6,5
1257,6,-3,-1,0,3,-2,5,5
1258,5,-3,1,-2,2,1,4,4
1259,4,-1,1,-3,2,2,3,2
1260,3,0,1,-4,0,5,3,0
1261,1,0,2,-5,-1,7,3,-3
1262,0,0,4,-4,-3,9,3,-4
1263,-1,1,5,-3,-3,10,3,-5
1264,-2,2,4,-2,-3,8,3,-4
1265,-2,5,1,-2,-1,5,3,-1
1266,-2,8,-3,-1,1,2,3,1
1267,-2,8,-5,-1,2,-1,3,2
1268,-1,8,-6,0,3,-2,4,2
1269,0,6,-7,1,2,-2,4,2
1270,0,3,-8,1,2,-2,3,1
1271,-1,1,-10,1,1,-3,3,2
1272,-1,0,-12,1,1,-4,3,3
1273,-1,-1,-14,1,1,-5,3,5
1274,0,-2,-12,1,2,-6,3,5
1275,1,-3,-9,1,3,-5,4,6
1276,2,-3,-5,1,5,-4,4,7
1277,4,-2,-3,1,7,-3,4,9
1278,7,-1,-3,1,8,-3,5,10
1279,8,1,-3,1,9,-3,6,12
1280,9,2,-2,1,9,-2,6,12
1281,9,3,0,1,8,-1,6,12
1282,9,4,2,1,7,0,5,11
1283,7,5,4,1,6,1,4,11
1284,6,8,4,1,5,1,2,11
1285,4,11,5,0,6,1,0,11
1286,3,13,8,-1,6,2,-1,11
1287,2,13,12,-1,7,3,-2,9
1288,3,13,13,-1,7,5,-3,7
1289,4,11,11,0,7,6,-2,5
1290,7,10,6,1,6,6,-1,5
1291,9,9,-1,1,6,5,0,5
1292,10,9,-7,1,7,3,1,7
1293,10,9,-10,1,7,2,1,8
1294,10,8,-10,0,8,2,1,10
1295,9,8,-8,0,8,2,1,11
1296,9,8,-9,0,9,1,1,12
1297,10,8,-9,0,10,1,2,14
1298,10,7,-7,0,10,2,3,14
1299,10,6,-4,0,10,3,3,14
1300,9,5,0,-1,9,4,2,14
1301,8,5,2,-1,7,4,1,13
1302,7,5,3,-1,5,3,-1,11
1303,6,3,4,-1,4,2,-3,10
1304,6,2,5,-1,2,1,-4,8
1305,7,0,4,-1,1,0,-5,7
1306,8,-1,3,-1,-1,1,-6,6
1307,9,-1,1,-1,-2,2,-6,5
1308,10,-2,0,-2,-3,2,-6,5
1309,11,-2,-2,-2,-2,1,-6,5
1310,12,-2,-4,-1,-1,-1,-5,5
1311,14,-2,-6,-1,2,-3,-4,6
1312,14,0,-8,-1,4,-6,-4,8
1313,16,1,-11,-1,7,-8,-4,9
1314,16,1,-13,-1,8,-10,-4,10
1315,16,0,-12,-2,8,-10,-5,9
1316,16,-3,-9,-2,7,-9,-6,7
1317,16,-5,-6,-2,7,-8,-7,5
1318,15,-6,-4,-2,7,-8,-8,4
1319,14,-6,-2,-2,8,-8,-8,5
1320,12,-5,-1,-1,9,-9,-9,5
1321,11,-6,1,-2,10,-11,-10,5
1322,10,-7,2,-2,9,-11,-10,5
1323,9,-9,3,-2,9,-12,-11,4
1324,9,-11,5,-2,7,-11,-10,2
1325,9,-13,7,-3,5,-10,-10,-1
1326,8,-15,8,-3,3,-8,-9,-4
1327,8,-16,8,-3,0,-6,-8,-7
1328,8,-15,7,-4,-2,-6,-7,-8
1329,7,-13,4,-4,-3,-6,-5,-9
1330,7,-10,1,-3,-3,-7,-4,-8
1331,8,-8,1,-3,-3,-7,-2,-7
1332,8,-7,3,-3,-2,-5,-1,-6
1333,8,-6,6,-3,-1,-3,-1,-4
1334,9,-4,6,-3,0,-1,-1,-2
1335,9,-1,3,-3,1,0,-2,2
1336,9,2,-1,-3,3,-1,-2,5
1337,9,5,-5,-1,5,-3,-1,8
1338,10,7,-7,-1,7,-6,-1,11
1339,10,6,-5,-1,9,-6,0,11
1340,9,3,1,-1,11,-5,-1,11
1341,9,-2,7,-2,13,-4,-3,9
1342,8,-6,10,-3,15,-4,-5,8
1343,7,-9,11,-3,16,-4,-7,7
1344,6,-11,10,-3,16,-5,-10,7
1345,5,-13,8,-1,15,-6,-11,7
1346,5,-14,6,0,13,-6,-12,6
1347,5,-16,4,1,10,-6,-12,4
1348,5,-18,4,2,6,-5,-12,1
1349,4,-21,4,2,2,-5,-12,-3
1350,4,-23,4,1,-3,-5,-12,-6
1351,4,-23,2,0,-7,-5,-12,-8
1352,4,-23,0,-1,-10,-4,-12,-8
1353,4,-24,-1,-2,-12,-3,-13,-9
1354,4,-25,1,-3,-14,-2,-14,-10
1355,4,-26,4,-3,-15,-1,-14,-12
1356,4,-26,7,-3,-15,1,-13,-13
1357,4,-24,9,-3,-14,2,-13,-13
1358,5,-22,11,-2,-12,4,-12,-12
1359,6,-20,12,-1,-10,5,-12,-10
1360,6,-17,14,-1,-7,6,-12,-7
1361,5,-15,14,-1,-5,7,-12,-6
1362,4,-14,15,-1,-3,8,-13,-5
1363,3,-12,16,-1,-1,9,-13,-4
1364,2,-10,15,-1,1,9,-13,-4
1365,2,-8,13,-2,1,10,-12,-5
1366,2,-6,11,-2,2,10,-11,-5
1367,3,-5,11,-2,3,10,-9,-6
1368,4,-5,13,-1,3,9,-8,-7
1369,5,-7,13,0,2,8,-6,-7
1370,5,-9,12,1,0,7,-5,-8
1371,6,-12,12,1,-1,6,-5,-9
1372,5,-15,11,1,-3,6,-5,-10
1373,5,-16,9,1,-4,6,-5,-10
1374,5,-15,6,1,-4,4,-6,-10
1375,5,-15,5,1,-2,3,-6,-8
1376,5,-15,5,1,-1,3,-6,-7
1377,6,-14,6,0,1,3,-7,-5
1378,6,-13,7,-1,3,2,-6,-2
1379,7,-11,8,0,5,2,-5,1
1380,8,-8,8,0,7,2,-4,4
1381,9,-5,7,1,7,2,-3,6
1382,9,-2,6,2,7,2,-3,8
1383,9,-1,5,2,6,4,-2,7
1384,9,0,6,2,4,6,-3,5
1385,10,2,8,1,2,8,-3,3
1386,11,4,10,1,0,10,-3,1
1387,11,5,12,1,-1,11,-3,1
1388,12,6,13,2,0,10,-3,1
1389,12,6,11,2,2,7,-3,3
1390,12,6,7,3,4,5,-3,6
1391,11,5,3,3,6,3,-4,8
1392,10,4,0,3,6,3,-5,8
1393,9,2,-2,4,5,4,-5,8
1394,8,1,-1,4,3,6,-6,6
1395,7,-2,1,5,1,8,-6,3
1396,6,-4,2,5,0,8,-5,2
1397,6,-5,2,4,-1,5,-4,1
1398,6,-5,0,3,0,4,-3,1
1399,5,-6,-2,2,1,2,-3,2
1400,4,-6,-2,0,2,2,-3,4
1401,4,-5,-2,-1,2,4,-4,7
1402,4,-4,-3,-2,2,5,-4,9
1403,5,-2,-4,-3,2,7,-4,12
1404,7,1,-4,-4,3,7,-4,14
1405,8,3,-4,-4,3,7,-3,14
1406,9,4,-4,-3,3,7,-2,13
1407,10,6,-2,-3,2,7,-1,12
1408,11,6,0,-2,2,8,-1,9
1409,11,6,3,-1,2,8,-1,6
1410,12,6,5,0,2,9,0,4
1411,13,5,5,1,3,8,1,2
1412,13,5,2,1,3,7,2,1
1413,13,3,-1,2,2,5,2,1
1414,12,1,-3,3,2,3,2,1
1415,10,-3,-3,3,1,1,1,0
1416,7,-7,0,2,0,0,0,-2
1417,5,-12,5,1,-1,0,-2,-4
1418,3,-15,8,-1,-1,1,-2,-5
1419,2,-16,8,-2,-2,1,-2,-5
1420,2,-15,7,-3,-2,1,-2,-4
1421,2,-13,6,-3,-2,2,-2,-2
1422,2,-12,7,-3,-2,4,-1,-1
1423,3,-12,8,-4,0,6,-1,2
1424,4,-11,8,-4,3,7,-1,5
1425,5,-7,6,-4,5,7,-2,8
1426,7,-3,2,-4,7,6,-2,12
1427,8,2,-2,-4,7,6,-2,14
1428,8,4,-4,-4,6,6,-3,14
1429,9,4,-4,-5,3,6,-3,12
1430,9,2,-1,-4,0,8,-4,9
1431,9,0,1,-4,-2,9,-3,7
1432,9,0,2,-3,-3,10,-3,6
1433,9,1,2,-2,-3,11,-2,6
1434,9,3,3,-1,-1,10,-1,6
1435,9,4,3,-1,2,8,-1,7
1436,9,6,4,-2,5,7,-1,8
1437,9,7,5,-3,8,5,0,10
1438,9,8,6,-4,10,4,0,11
1439,8,7,6,-5,10,4,-1,10
1440,8,4,6,-6,9,5,-1,8
1441,7,1,6,-7,8,5,-1,5
1442,6,-3,8,-8,7,4,-1,2
1443,6,-6,9,-8,7,3,-1,0
1444,6,-9,11,-7,7,2,-1,-1
1445,6,-10,12,-6,7,3,-1,-1
1446,6,-11,12,-5,7,3,-2,-1
1447,6,-12,12,-4,6,3,-1,1
1448,7,-11,11,-3,7,2,-1,2
1449,8,-11,11,-2,8,-1,1,4
1450,9,-10,11,-2,9,-2,2,5
1451,9,-9,12,-3,10,-2,3,6
1452,9,-9,12,-4,10,-2,3,6
1453,9,-9,10,-6,9,0,2,6
1454,9,-9,7,-7,8,0,2,6
1455,9,-9,5,-9,6,1,2,5
1456,8,-9,3,-9,3,1,1,2
1457,8,-10,3,-10,-1,2,1,-2
1458,7,-12,3,-10,-5,3,1,-6
1459,7,-14,4,-11,-9,3,1,-9
1460,7,-15,4,-11,-11,3,2,-11
1461,7,-15,4,-12,-10,2,3,-11
1462,8,-14,3,-13,-8,0,4,-9
1463,9,-11,2,-13,-5,-1,5,-5
1464,9,-8,3,-13,-1,0,6,-1
1465,10,-7,5,-13,2,2,7,3
1466,10,-6,9,-12,4,4,7,5
1467,10,-8,13,-12,5,5,7,6
1468,10,-9,14,-11,6,5,6,7
1469,9,-10,13,-10,7,4,6,7
1470,8,-11,9,-9,7,1,6,8
1471,8,-10,5,-7,6,-1,6,10
1472,8,-11,3,-6,5,-2,7,11
1473,7,-13,5,-6,3,-1,7,11
1474,7,-17,11,-6,0,3,7,10
1475,6,-21,16,-6,-2,5,7,9
1476,5,-23,20,-7,-4,7,6,9
1477,4,-24,22,-8,-4,8,5,9
1478,3,-23,23,-9,-4,10,4,9
1479,2,-20,23,-10,-3,11,3,10
1480,2,-18,23,-11,-1,11,3,11
1481,2,-18,26,-11,2,11,3,10
1482,2,-17,30,-11,5,10,3,10
1483,3,-16,30,-11,7,8,3,12
1484,4,-12,26,-10,8,6,3,14
1485,5,-7,22,-9,9,5,4,17
1486,6,-2,18,-9,9,4,4,19
1487,6,3,16,-9,10,6,4,20
1488,7,6,14,-9,10,7,4,20
1489,8,9,11,-9,11,7,4,20
1490,9,11,8,-9,12,7,4,21
1491,11,13,4,-9,14,6,4,21
1492,12,14,1,-8,14,4,5,22
1493,13,13,0,-7,15,3,6,22
1494,14,11,3,-7,14,2,7,22
1495,15,7,7,-6,13,3,8,20
1496,15,4,9,-6,11,4,8,20
1497,15,0,10,-6,10,4,8,20
1498,14,-5,12,-6,9,5,7,18
1499,14,-10,15,-7,8,6,6,16
1500,13,-15,17,-7,7,6,6,13
1501,13,-18,18,-7,7,6,6,12
1502,14,-19,16,-6,7,5,7,12
1503,15,-19,13,-6,8,3,7,13
1504,15,-17,11,-6,10,0,8,14
1505,16,-15,10,-6,11,-1,7,15
1506,16,-12,8,-5,12,-1,6,16
1507,15,-9,7,-5,12,0,5,17
1508,14,-6,6,-5,12,1,4,18
1509,13,-3,6,-5,13,0,4,20
1510,12,1,6,-4,15,-2,3,23
1511,11,2,8,-5,16,-4,3,24
1512,9,1,9,-5,16,-5,3,22
1513,8,-1,8,-6,15,-5,3,20
1514,8,-3,6,-7,13,-5,3,17
1515,8,-4,4,-7,11,-5,3,14
1516,8,-6,5,-8,10,-4,3,13
1517,9,-8,7,-8,9,-3,4,11
1518,9,-11,11,-9,8,-1,4,10
1519,9,-15,14,-10,7,1,4,9
1520,9,-18,16,-11,6,3,5,8
1521,10,-21,18,-11,5,4,5,8
1522,11,-23,21,-11,3,5,6,9
1523,12,-24,23,-11,3,6,6,10
1524,13,-23,24,-11,3,6,7,12
1525,14,-21,22,-10,5,5,8,15
1526,15,-19,20,-10,7,3,8,18
1527,16,-15,17,-9,9,1,8,21
1528,16,-12,14,-9,12,-2,6,23
1529,16,-11,14,-9,13,-2,5,24
1530,14,-11,17,-9,14,0,4,22
1531,13,-11,20,-10,13,2,3,21
1532,11,-10,21,-10,13,3,2,19
1533,11,-10,19,-9,12,3,1,18
1534,10,-10,17,-9,11,2,1,17
1535,11,-11,16,-8,9,2,2,15
1536,11,-13,15,-8,6,2,2,12
1537,11,-15,15,-8,4,2,3,10
1538,11,-17,17,-9,2,3,3,7
1539,11,-18,20,-10,1,4,3,6
1540,11,-20,24,-11,0,6,3,6
1541,11,-22,27,-12,0,9,3,7
1542,12,-23,31,-13,1,10,3,9
1543,12,-24,33,-13,3,10,3,12
1544,13,-24,32,-12,5,8,4,16
1545,13,-23,31,-11,8,5,4,19
1546,14,-22,29,-10,10,3,4,22
1547,13,-21,26,-10,11,2,4,24
1548,13,-19,25,-9,11,2,3,24
1549,11,-18,25,-9,10,3,2,23
1550,10,-18,28,-8,10,4,1,21
1551,9,-18,32,-8,9,5,0,18
1552,8,-18,34,-8,8,4,-1,15
1553,8,-17,34,-8,8,4,-1,13
1554,7,-15,32,-9,7,4,-1,13
1555,8,-12,27,-8,7,5,-1,14
1556,8,-8,24,-8,8,5,0,16
1557,8,-6,23,-8,10,4,0,18
1558,9,-5,26,-7,13,4,0,21
1559,9,-5,31,-7,17,3,0,23
1560,10,-6,36,-7,19,3,0,25
1561,11,-7,39,-6,21,4,1,27
1562,12,-5,39,-6,21,5,1,30
1563,14,-2,38,-6,20,7,3,33
1564,15,2,35,-5,20,7,4,36
1565,16,4,33,-5,20,6,5,38
1566,16,4,34,-5,21,6,6,39
1567,16,4,36,-5,22,6,6,40
1568,16,3,38,-4,23,7,6,40
1569,16,3,40,-3,24,7,6,40
1570,15,4,39,-2,25,6,6,42
1571,14,6,36,-1,26,4,6,44
1572,13,8,34,-1,27,3,6,45
1573,12,9,36,-1,27,4,6,45
1574,11,9,40,0,27,5,6,43
1575,11,8,45,0,27,8,6,42
1576,12,7,49,0,28,10,6,41
1577,13,6,51,0,28,12,6,41
1578,14,7,51,0,29,11,6,43
1579,15,8,49,0,31,9,6,45
1580,16,10,47,0,32,7,6,47
1581,17,11,45,0,34,6,7,48
1582,17,12,43,0,35,4,8,48
1583,17,12,41,-1,36,3,8,48
1584,16,11,41,-1,37,3,9,47
1585,16,10,42,-2,37,4,9,47
1586,16,8,45,-2,36,6,9,47
1587,17,7,46,-3,35,7,8,48
1588,17,5,46,-4,33,9,7,48
1589,18,3,46,-4,30,11,7,48
1590,19,2,46,-5,27,12,7,47
1591,19,1,45,-6,25,13,7,47
1592,18,1,43,-6,24,14,7,49
1593,18,2,40,-5,24,14,7,50
1594,19,3,37,-5,24,13,7,51
1595,19,3,36,-4,24,12,7,52
1596,19,3,35,-4,25,10,7,52
1597,18,3,35,-4,26,8,7,51
1598,17,3,35,-4,28,7,7,51
1599,17,4,36,-4,30,6,8,51
1600,17,5,37,-4,32,6,9,52
1601,17,6,38,-3,35,6,10,55
1602,18,10,38,-3,37,7,11,59
1603,19,14,35,-2,40,6,13,63
1604,20,18,32,-2,41,4,15,67
1605,20,22,28,-2,42,2,18,67
1606,20,22,27,-1,41,3,21,64
1607,20,21,30,-1,38,5,24,59
1608,19,19,34,-2,35,8,26,53
1609,18,17,37,-2,33,10,26,48
1610,18,16,38,-3,30,12,26,45
1611,17,14,40,-3,28,13,26,42
1612,17,12,43,-3,27,14,26,41
1613,17,10,48,-3,27,16,26,39
1614,17,9,51,-3,27,17,27,39
1615,17,9,51,-3,29,15,27,40
1616,17,10,46,-2,32,12,27,43
1617,16,11,41,-1,35,8,27,47
1618,15,11,37,-1,37,6,26,49
1619,15,10,36,-1,39,5,26,50
1620,14,8,37,-1,40,7,25,50
1621,15,6,37,-1,38,9,24,49
1622,16,5,37,-2,36,11,24,49
1623,17,5,36,-3,34,13,25,49
1624,18,5,34,-5,33,12,25,49
1625,19,5,33,-6,31,10,25,48
1626,19,4,34,-7,29,11,25,45
1627,18,1,37,-8,27,12,24,41
1628,18,-1,38,-9,24,15,22,38
1629,17,-2,38,-10,22,18,21,36
1630,17,-1,39,-11,20,21,19,37
1631,18,-1,39,-11,19,22,18,38
1632,18,0,40,-10,19,21,18,40
1633,18,-1,40,-9,19,20,17,43
1634,18,-2,40,-8,19,19,17,44
1635,18,-3,40,-7,20,17,16,44
1636,17,-4,39,-6,20,16,15,45
1637,17,-4,39,-6,21,15,14,46
1638,18,-5,40,-6,22,14,14,46
1639,18,-5,42,-6,22,14,14,46
1640,19,-6,42,-7,23,14,15,47
1641,20,-5,40,-7,23,13,16,48
1642,21,-4,38,-7,23,13,16,49
1643,22,-2,34,-6,24,11,17,50
1644,22,0,31,-5,26,7,17,51
1645,22,1,30,-4,27,4,17,52
1646,21,2,31,-3,30,2,16,52
1647,21,4,32,-2,32,1,16,52
1648,21,5,34,-1,33,3,15,52
1649,20,6,37,-1,34,5,14,52
1650,20,7,40,-1,36,7,13,52
1651,19,8,42,-1,38,8,13,53
1652,18,9,41,-2,40,6,13,54
1653,17,10,40,-3,42,6,13,55
1654,17,12,40,-4,44,6,13,56
1655,16,13,40,-5,45,7,14,56
1656,16,14,40,-6,45,10,14,56
1657,15,14,40,-7,44,12,14,56
1658,15,14,40,-7,42,14,13,56
1659,14,14,39,-7,40,15,12,56
1660,13,14,36,-8,37,16,11,57
1661,12,13,32,-8,34,17,10,57
1662,12,13,27,-9,31,17,9,56
1663,11,13,21,-9,28,17,9,56
1664,11,14,16,-9,27,16,10,56
1665,10,13,16,-8,26,16,10,55
1666,10,13,18,-8,25,16,10,55
1667,9,13,20,-7,26,17,11,56
1668,9,15,22,-6,27,18,11,57
1669,9,17,24,-6,28,18,11,59
1670,8,18,25,-5,29,18,10,61
1671,8,19,26,-5,32,16,9,62
1672,8,19,27,-4,35,13,9,63
1673,9,19,29,-3,39,10,10,65
1674,10,21,29,-3,43,8,11,67
1675,12,23,28,-2,46,7,12,69
1676,13,26,28,-2,48,10,13,71
1677,14,28,30,-2,48,14,14,73
1678,15,30,30,-3,48,19,14,75
1679,16,31,27,-4,48,21,14,76
1680,16,31,22,-5,47,22,14,78
1681,15,30,18,-6,45,21,14,78
1682,14,27,15,-7,43,21,13,78
1683,14,24,16,-8,40,21,12,76
1684,12,19,19,-9,38,20,11,72
1685,12,16,23,-9,36,20,10,69
1686,11,14,25,-9,36,19,8,67
1687,11,14,24,-9,36,17,8,65
1688,12,14,25,-9,38,16,8,64
1689,12,13,28,-8,40,15,8,64
1690,13,13,31,-8,42,15,9,64
1691,14,14,33,-7,43,15,9,65
1692,15,16,32,-7,45,15,10,66
1693,15,20,30,-7,46,16,10,69
1694,16,24,28,-6,47,17,10,71
1695,16,27,26,-6,48,17,11,74
1696,17,30,27,-6,49,18,12,76
1697,17,30,30,-5,50,19,13,76
1698,17,29,31,-5,50,20,13,76
1699,17,27,30,-5,50,20,13,75
1700,16,27,26,-5,50,20,12,75
1701,14,26,22,-5,49,20,11,74
1702,13,26,20,-6,49,19,10,74
1703,12,26,20,-6,48,18,9,73
1704,10,24,22,-7,46,20,9,71
1705,9,20,26,-7,44,22,10,67
1706,8,17,27,-6,43,22,11,63
1707,7,14,24,-5,42,19,12,61
1708,7,12,21,-4,42,16,12,59
1709,7,10,20,-3,41,12,13,58
1710,7,9,19,-2,41,11,13,58
1711,7,10,20,-2,42,11,13,58
1712,7,11,20,-1,42,12,14,59
1713,8,14,21,-2,43,14,14,60
1714,7,18,21,-3,44,15,14,61
1715,7,22,21,-4,46,16,13,63
1716,7,25,23,-5,47,18,12,63
1717,6,26,26,-6,48,21,11,63
1718,6,25,29,-7,49,23,10,62
1719,5,25,31,-7,50,22,10,61
1720,6,25,28,-7,51,20,10,62
1721,6,23,25,-7,51,16,11,62
1722,6,20,23,-7,50,13,11,61
1723,7,18,21,-7,49,12,12,59
1724,7,16,19,-7,46,12,13,58
1725,8,14,18,-7,44,14,13,57
1726,9,13,19,-8,43,16,14,57
1727,10,13,18,-8,42,16,14,58
1728,11,14,16,-8,43,15,13,60
1729,11,15,14,-7,43,13,12,62
1730,12,16,13,-7,44,12,11,62
1731,11,17,14,-6,45,12,11,63
1732,11,18,16,-5,47,13,11,62
1733,12,18,19,-5,49,14,13,62
1734,12,18,22,-4,51,15,14,61
1735,13,19,24,-5,53,17,15,60
1736,12,19,26,-5,55,18,15,59
1737,12,19,27,-6,56,18,14,58
1738,11,19,26,-8,57,18,13,57
1739,10,20,26,-8,57,17,13,57
1740,10,20,26,-9,57,17,13,56
1741,10,19,27,-9,56,18,14,54
1742,10,19,29,-9,54,21,15,52
1743,11,18,30,-10,52,23,15,50
1744,11,17,29,-10,50,24,16,47
1745,12,16,25,-10,48,24,15,46
1746,13,16,21,-10,47,22,15,46
1747,13,16,17,-10,46,20,15,46
1748,14,17,14,-10,47,18,16,47
1749,15,18,13,-10,48,18,17,47
1750,16,18,12,-9,48,18,18,48
1751,16,19,11,-9,49,18,19,48
1752,16,21,10,-8,50,16,19,50
1753,15,22,9,-7,50,16,19,52
1754,14,21,11,-7,50,16,19,52
1755,13,19,14,-7,49,16,19,51
1756,11,16,18,-8,48,16,19,49
1757,10,13,21,-8,46,15,19,46
1758,9,11,22,-8,45,14,19,43
1759,10,10,21,-8,44,14,19,42
1760,10,9,20,-8,44,14,19,41
1761,11,10,20,-7,44,14,18,41
1762,12,10,20,-7,44,15,17,42
1763,12,11,21,-7,44,17,16,42
1764,11,13,20,-8,44,18,15,42
1765,11,14,20,-8,45,18,14,42
1766,10,16,18,-8,46,16,15,41
1767,10,16,17,-8,47,14,15,40
1768,9,16,17,-9,48,13,15,38
1769,8,16,16,-10,49,12,15,36
1770,8,18,13,-11,49,12,16,35
1771,8,21,9,-11,48,12,16,36
1772,8,23,5,-12,46,13,17,35
1773,8,24,3,-12,45,13,18,34
1774,8,23,3,-13,44,13,18,32
1775,8,21,3,-13,44,13,17,30
1776,8,19,2,-14,44,12,16,29
1777,8,18,1,-15,45,11,16,28
1778,8,15,0,-16,45,9,14,26
1779,7,11,1,-17,44,8,13,23
1780,6,6,5,-18,42,8,12,19
1781,6,1,9,-18,40,8,11,14
1782,5,-2,12,-18,38,9,11,12
1783,5,-2,11,-18,37,8,11,11
1784,5,0,7,-17,36,7,11,12
1785,6,3,3,-17,36,6,11,14
1786,6,4,1,-17,36,6,12,14
1787,7,6,1,-17,35,7,12,14
1788,7,7,2,-17,36,8,13,14
1789,8,9,1,-17,36,7,13,16
1790,9,12,-2,-16,36,6,13,18
1791,10,16,-4,-15,37,6,14,20
1792,10,19,-7,-15,37,5,13,23
1793,9,21,-10,-14,37,5,13,24
1794,9,21,-11,-15,37,6,12,23
1795,8,20,-12,-15,37,6,12,23
1796,7,20,-11,-16,37,7,12,22
1797,7,18,-9,-16,37,9,12,20
1798,5,17,-6,-17,37,11,11,19
1799,4,16,-4,-17,37,12,11,18
1800,3,16,-4,-18,37,12,10,19
1801,2,16,-5,-19,38,11,10,20
1802,1,17,-6,-19,39,10,9,20
1803,1,16,-4,-20,39,10,10,19
1804,0,16,-1,-21,40,10,10,18
1805,0,15,1,-21,40,10,10,16
1806,-1,14,1,-22,40,11,10,15
1807,-2,14,-1,-22,40,12,9,15
1808,-2,15,-4,-22,40,11,7,15
1809,-2,15,-6,-22,41,9,7,16
1810,-2,15,-6,-21,41,7,6,15
1811,-1,16,-5,-21,40,6,7,14
1812,1,16,-4,-20,40,6,7,13
1813,2,17,-4,-19,39,6,8,11
1814,3,17,-4,-19,39,7,8,11
1815,3,17,-3,-18,40,6,9,10
1816,3,17,-3,-18,42,5,9,10
1817,2,19,-6,-18,44,2,9,11
1818,1,20,-9,-18,45,1,9,11
1819,0,21,-12,-19,43,1,9,9
1820,-1,20,-14,-20,40,2,9,6
1821,-2,17,-15,-22,37,2,9,2
1822,-3,14,-16,-23,34,2,9,-2
1823,-3,12,-16,-24,32,0,9,-4
1824,-3,12,-16,-24,32,-1,9,-4
1825,-2,13,-15,-23,31,-1,10,-4
1826,-2,13,-14,-23,31,1,11,-4
1827,-3,13,-14,-22,31,2,12,-4
1828,-3,12,-14,-22,31,3,12,-5
1829,-4,10,-15,-22,31,2,11,-6
1830,-5,8,-15,-22,31,1,11,-8
1831,-5,7,-15,-22,31,-1,10,-10
1832,-4,7,-15,-21,32,-2,10,-9
1833,-3,9,-17,-21,33,-3,10,-7
1834,-2,12,-19,-20,35,-4,10,-5
1835,-1,15,-21,-20,36,-6,11,-2
1836,0,18,-23,-19,38,-7,11,0
1837,1,19,-21,-19,39,-8,12,0
1838,1,17,-16,-19,39,-7,13,-2
1839,1,16,-12,-19,38,-5,13,-5
1840,0,16,-12,-20,37,-3,13,-6
1841,-1,17,-14,-21,36,-2,13,-7
1842,-3,19,-16,-22,35,-1,12,-8
1843,-5,20,-19,-23,34,0,11,-8
1844,-6,21,-20,-23,32,1,10,-8
1845,-6,21,-19,-24,32,1,11,-8
1846,-5,20,-19,-24,31,0,11,-8
1847,-4,18,-19,-24,31,-2,12,-9
1848,-4,14,-20,-25,29,-4,11,-10
1849,-4,11,-21,-26,27,-6,11,-12
1850,-5,6,-21,-26,25,-8,9,-14
1851,-6,2,-19,-27,22,-7,7,-18
1852,-7,-1,-17,-28,20,-5,5,-21
1853,-7,-4,-16,-27,18,-3,4,-24
1854,-7,-5,-17,-27,17,-3,3,-26
1855,-7,-6,-20,-25,18,-4,2,-26
1856,-6,-5,-23,-24,19,-6,3,-26
1857,-5,-5,-26,-22,21,-9,3,-26
1858,-5,-6,-25,-21,22,-11,4,-26
1859,-5,-7,-22,-21,24,-11,4,-26
1860,-4,-6,-21,-20,25,-10,4,-26
1861,-2,-3,-24,-20,26,-11,4,-25
1862,-1,2,-31,-19,28,-13,5,-22
1863,0,8,-38,-18,29,-16,6,-18
1864,1,14,-43,-17,30,-18,7,-15
1865,1,17,-44,-16,30,-18,8,-14
1866,0,18,-41,-15,28,-16,9,-14
1867,-1,18,-36,-14,26,-13,9,-16
1868,-2,17,-32,-14,23,-9,9,-18
1869,-3,16,-30,-14,20,-7,8,-19
1870,-4,14,-29,-15,17,-5,7,-20
1871,-5,11,-26,-16,15,-3,5,-22
1872,-6,8,-23,-17,13,-2,4,-24
1873,-6,5,-22,-17,12,-1,4,-26
1874,-6,5,-25,-17,11,-3,4,-27
1875,-5,5,-28,-16,11,-5,4,-27
1876,-4,6,-32,-15,12,-7,4,-27
1877,-3,7,-34,-14,14,-10,4,-26
1878,-2,8,-34,-13,16,-12,4,-25
1879,-1,8,-34,-13,17,-13,3,-25
1880,-1,7,-32,-14,16,-12,3,-25
1881,-1,5,-30,-14,14,-11,3,-27
1882,-1,3,-29,-15,12,-11,2,-28
1883,-1,2,-28,-16,10,-10,2,-30
1884,-1,2,-30,-16,10,-9,1,-31
1885,-1,2,-32,-16,10,-8,1,-32
1886,-2,3,-33,-17,9,-6,1,-33
1887,-2,3,-34,-16,9,-4,2,-35
1888,-2,4,-32,-15,9,-3,3,-36
1889,-2,5,-30,-14,11,-4,4,-36
1890,-2,8,-27,-13,12,-5,4,-35
1891,-2,9,-25,-12,13,-6,4,-33
1892,-2,9,-25,-12,14,-7,4,-32
1893,-1,9,-25,-12,13,-7,4,-31
1894,-1,7,-25,-12,12,-8,3,-31
1895,1,7,-28,-12,12,-9,4,-30
1896,2,7,-32,-12,12,-11,4,-28
1897,4,8,-36,-11,11,-14,5,-27
1898,5,7,-36,-10,10,-15,7,-29
1899,5,4,-34,-9,7,-15,7,-33
1900,5,0,-34,-9,4,-15,8,-36
1901,3,-2,-36,-8,1,-16,8,-39
1902,2,-3,-38,-7,-2,-17,7,-42
1903,1,-4,-41,-7,-3,-18,6,-43
1904,0,-6,-40,-7,-3,-17,6,-46
1905,-1,-8,-36,-7,-4,-15,6,-49
1906,-1,-10,-31,-7,-4,-13,5,-51
1907,-2,-11,-27,-6,-3,-13,6,-53
1908,-1,-10,-25,-6,-3,-14,6,-53
1909,-1,-9,-27,-5,-2,-17,7,-52
1910,0,-7,-29,-3,-1,-19,7,-50
1911,1,-5,-31,-2,0,-20,7,-47
1912,1,-2,-33,-2,1,-20,6,-45
1913,1,1,-36,-2,1,-19,6,-42
1914,0,5,-39,-2,-1,-18,5,-40
1915,0,7,-40,-2,-3,-16,6,-41
1916,0,7,-41,-2,-6,-13,7,-43
1917,1,6,-42,-2,-9,-11,8,-47
1918,1,5,-42,-2,-10,-11,9,-49
1919,1,3,-42,-2,-11,-11,9,-50
1920,2,2,-42,-2,-10,-13,8,-50
1921,1,2,-42,-3,-8,-16,8,-48
1922,1,1,-41,-4,-6,-18,7,-47
1923,0,0,-40,-5,-6,-18,6,-47
1924,-1,-3,-36,-6,-8,-17,5,-49
1925,-2,-5,-34,-6,-10,-16,4,-50
1926,-2,-7,-35,-6,-11,-17,3,-51
1927,-3,-8,-37,-6,-12,-19,2,-52
1928,-3,-9,-40,-5,-13,-21,2,-53
1929,-3,-9,-43,-4,-13,-22,2,-53
1930,-3,-10,-43,-4,-13,-23,2,-54
1931,-4,-10,-41,-4,-13,-23,1,-56
1932,-4,-11,-38,-4,-13,-22,1,-58
1933,-4,-11,-36,-5,-12,-22,0,-59
1934,-5,-10,-36,-5,-12,-21,-1,-58
1935,-5,-8,-36,-5,-11,-20,-1,-58
1936,-5,-7,-34,-4,-10,-19,-1,-57
1937,-5,-7,-33,-3,-9,-19,0,-55
1938,-4,-6,-32,-2,-8,-19,0,-53
1939,-3,-6,-34,-1,-7,-20,-1,-51
1940,-2,-4,-37,-1,-7,-21,-1,-48
1941,-2,-3,-40,-1,-6,-21,-2,-46
1942,-2,-2,-41,0,-6,-19,-2,-44
1943,-3,-1,-41,0,-6,-17,-2,-42
1944,-3,1,-40,0,-6,-16,-2,-41
1945,-3,2,-41,0,-6,-16,-2,-40
1946,-3,2,-43,-1,-7,-17,-3,-41
1947,-4,2,-46,-2,-8,-18,-3,-42
1948,-4,1,-48,-3,-9,-19,-3,-45
1949,-5,0,-49,-3,-10,-20,-3,-47
1950,-6,-3,-49,-3,-12,-22,-3,-50
1951,-8,-6,-48,-2,-14,-23,-3,-53
1952,-9,-10,-48,-2,-17,-24,-4,-56
1953,-10,-13,-47,-1,-19,-25,-6,-58
1954,-11,-15,-47,-1,-21,-25,-7,-61
1955,-12,-16,-46,-2,-22,-26,-8,-62
1956,-12,-15,-46,-3,-22,-27,-9,-63
1957,-13,-13,-47,-4,-22,-29,-9,-63
1958,-13,-12,-47,-4,-22,-30,-8,-64
1959,-12,-11,-47,-4,-23,-31,-7,-65
1960,-12,-10,-46,-3,-23,-30,-5,-65
1961,-12,-9,-47,-3,-23,-30,-5,-65
1962,-11,-9,-48,-3,-23,-30,-4,-65
1963,-11,-10,-46,-3,-23,-28,-5,-65
1964,-11,-12,-44,-4,-21,-28,-5,-65
1965,-11,-12,-42,-4,-19,-27,-6,-64
1966,-10,-11,-42,-5,-18,-27,-6,-63
1967,-10,-9,-44,-5,-18,-26,-6,-63
1968,-10,-7,-46,-4,-18,-26,-7,-62
1969,-11,-6,-49,-4,-20,-26,-8,-61
1970,-12,-6,-50,-3,-22,-27,-9,-61
1971,-13,-8,-49,-3,-23,-28,-10,-62
1972,-14,-11,-46,-4,-24,-29,-11,-63
1973,-15,-13,-45,-4,-25,-29,-12,-65
1974,-15,-16,-44,-4,-26,-27,-12,-67
1975,-14,-18,-43,-4,-27,-23,-12,-69
1976,-13,-20,-43,-4,-29,-20,-12,-71
1977,-13,-21,-42,-4,-30,-16,-11,-73
1978,-13,-20,-42,-5,-32,-15,-11,-74
1979,-14,-19,-42,-6,-33,-15,-11,-75
1980,-15,-18,-43,-8,-34,-16,-11,-76
1981,-16,-16,-44,-9,-34,-16,-11,-76
1982,-17,-15,-44,-10,-35,-17,-12,-75
1983,-17,-14,-44,-10,-35,-17,-12,-73
1984,-17,-13,-42,-9,-35,-18,-12,-72
1985,-17,-12,-40,-8,-34,-19,-13,-70
1986,-17,-12,-37,-7,-34,-19,-13,-70
1987,-18,-12,-36,-6,-34,-20,-13,-69
1988,-19,-13,-37,-7,-34,-21,-14,-68
1989,-19,-14,-38,-7,-34,-20,-14,-67
1990,-19,-14,-38,-7,-35,-19,-15,-66
1991,-18,-14,-37,-6,-35,-18,-15,-65
1992,-18,-13,-36,-6,-35,-17,-15,-63
1993,-17,-14,-33,-5,-35,-17,-15,-63
1994,-17,-16,-30,-4,-34,-16,-15,-63
1995,-17,-19,-26,-4,-34,-16,-16,-65
1996,-17,-21,-25,-5,-34,-16,-17,-67
1997,-18,-22,-26,-6,-34,-15,-17,-69
1998,-18,-23,-25,-7,-34,-13,-18,-70
1999,-17,-22,-26,-7,-35,-12,-18,-70
2000,-16,-19,-28,-7,-35,-12,-17,-67
2001,-15,-17,-29,-6,-35,-13,-16,-65
2002,-14,-16,-28,-6,-35,-13,-15,-64
2003,-14,-16,-28,-6,-35,-13,-14,-64
2004,-14,-14,-30,-6,-35,-13,-13,-65
2005,-15,-13,-33,-6,-35,-13,-12,-65
2006,-16,-12,-35,-6,-34,-14,-12,-64
2007,-16,-11,-35,-6,-32,-16,-11,-62
2008,-16,-10,-35,-6,-29,-19,-10,-60
2009,-16,-11,-33,-6,-27,-21,-10,-59
2010,-16,-12,-31,-6,-26,-22,-9,-59
2011,-15,-12,-32,-6,-25,-23,-7,-58
2012,-14,-11,-35,-6,-24,-23,-6,-57
2013,-14,-8,-38,-6,-23,-24,-5,-55
2014,-14,-5,-41,-5,-22,-24,-5,-52
2015,-13,-3,-42,-4,-21,-23,-5,-51
2016,-12,-4,-41,-4,-20,-21,-6,-50
2017,-12,-5,-38,-3,-21,-19,-6,-50
2018,-11,-8,-35,-2,-22,-17,-6,-50
2019,-11,-9,-32,-1,-23,-17,-6,-48
2020,-11,-8,-31,-1,-24,-17,-6,-46
2021,-11,-6,-33,0,-24,-18,-6,-43
2022,-11,-4,-36,1,-24,-20,-7,-41
2023,-11,-2,-39,1,-24,-21,-7,-40
2024,-11,-1,-39,1,-24,-23,-7,-39
2025,-12,-2,-37,1,-24,-23,-7,-38
2026,-11,-4,-34,2,-24,-23,-7,-38
2027,-11,-6,-30,2,-24,-21,-6,-39
2028,-10,-8,-28,3,-25,-19,-6,-40
2029,-10,-10,-29,3,-26,-19,-6,-41
2030,-9,-10,-31,4,-27,-21,-6,-40
2031,-9,-10,-32,4,-26,-23,-6,-38
2032,-8,-10,-31,5,-25,-25,-6,-36
2033,-7,-10,-31,6,-25,-25,-5,-33
2034,-6,-11,-31,6,-25,-25,-4,-32
2035,-5,-12,-31,7,-26,-25,-3,-31
2036,-4,-13,-30,8,-26,-26,-2,-31
2037,-4,-14,-28,9,-25,-27,-1,-31
2038,-5,-15,-26,9,-24,-27,1,-31
2039,-5,-16,-24,10,-24,-26,2,-33
2040,-5,-16,-25,10,-25,-25,3,-35
2041,-6,-14,-28,10,-26,-25,3,-36
2042,-6,-12,-33,10,-27,-26,3,-37
2043,-7,-10,-38,9,-28,-28,2,-36
2044,-7,-9,-40,8,-28,-29,1,-36
2045,-7,-10,-36,8,-30,-27,1,-36
2046,-8,-13,-28,8,-31,-23,0,-38
2047,-8,-14,-23,8,-32,-18,-1,-39
2048,-9,-14,-24,8,-33,-14,-1,-39
2049,-9,-11,-27,7,-34,-13,-1,-37
2050,-10,-8,-31,7,-34,-14,-1,-34
2051,-10,-5,-32,7,-34,-15,-1,-32
2052,-11,-5,-31,8,-34,-16,0,-31
2053,-11,-6,-27,9,-34,-17,0,-31
2054,-12,-8,-23,10,-33,-17,-1,-30
2055,-11,-10,-21,11,-33,-18,-1,-30
2056,-11,-9,-21,12,-32,-19,0,-28
2057,-10,-8,-21,12,-32,-19,1,-27
2058,-10,-7,-19,13,-33,-18,2,-27
2059,-10,-7,-16,13,-34,-16,3,-27
2060,-9,-7,-14,13,-36,-14,4,-28
2061,-9,-8,-14,13,-37,-13,5,-30
2062,-8,-9,-14,13,-37,-14,5,-31
2063,-8,-10,-15,12,-37,-15,5,-31
2064,-8,-12,-15,10,-36,-16,4,-32
2065,-9,-15,-14,9,-36,-16,2,-33
2066,-9,-18,-12,7,-35,-16,1,-35
2067,-10,-21,-9,7,-35,-16,-2,-36
2068,-10,-25,-5,6,-34,-15,-3,-36
2069,-9,-27,-1,5,-33,-13,-5,-37
2070,-9,-29,0,5,-33,-12,-6,-36
2071,-8,-29,-2,5,-33,-13,-6,-35
2072,-7,-28,-5,5,-34,-14,-7,-34
2073,-7,-27,-8,5,-35,-15,-8,-33
2074,-8,-27,-9,5,-36,-16,-9,-33
2075,-9,-27,-10,5,-36,-16,-10,-33
2076,-10,-26,-11,4,-37,-15,-10,-34
2077,-10,-26,-11,3,-38,-13,-10,-35
2078,-11,-27,-10,2,-39,-13,-11,-36
2079,-11,-28,-8,2,-40,-14,-11,-36
2080,-11,-28,-7,3,-39,-16,-10,-35
2081,-10,-29,-5,4,-38,-17,-10,-34
2082,-10,-29,-4,4,-37,-18,-9,-33
2083,-10,-29,-3,4,-35,-17,-9,-32
2084,-11,-29,-4,4,-33,-16,-9,-30
2085,-11,-28,-4,4,-31,-16,-9,-28
2086,-12,-27,-3,3,-29,-16,-9,-26
2087,-12,-26,-2,3,-27,-16,-9,-24
2088,-12,-24,-3,3,-27,-16,-9,-21
2089,-13,-22,-4,3,-28,-15,-8,-18
2090,-13,-21,-5,4,-30,-13,-7,-17
2091,-13,-22,-4,4,-33,-10,-7,-18
2092,-13,-24,-3,3,-35,-9,-7,-21
2093,-13,-27,-2,3,-37,-9,-7,-24
2094,-13,-30,-2,3,-39,-10,-8,-27
2095,-12,-32,-3,3,-40,-12,-9,-30
2096,-13,-32,-4,3,-41,-12,-10,-32
2097,-13,-32,-4,3,-42,-12,-11,-33
2098,-14,-30,-6,3,-43,-11,-13,-33
2099,-15,-28,-7,2,-44,-12,-14,-32
2100,-15,-27,-9,2,-45,-14,-14,-32
2101,-15,-27,-9,2,-45,-17,-15,-31
2102,-14,-28,-8,3,-45,-19,-15,-31
2103,-13,-27,-8,3,-44,-19,-14,-29
2104,-12,-26,-7,3,-43,-17,-13,-27
2105,-10,-24,-7,3,-41,-15,-12,-25
2106,-8,-22,-8,4,-39,-15,-10,-23
2107,-6,-19,-11,4,-36,-16,-9,-20
2108,-5,-17,-14,5,-35,-17,-8,-18
2109,-4,-15,-18,5,-34,-17,-8,-17
2110,-3,-14,-19,5,-34,-17,-8,-17
2111,-2,-15,-19,5,-35,-16,-8,-17
2112,-2,-18,-15,5,-36,-15,-8,-19
2113,-2,-21,-10,5,-37,-15,-8,-21
2114,-2,-24,-5,5,-38,-15,-8,-24
2115,-3,-26,-1,5,-38,-15,-8,-26
2116,-2,-26,2,5,-38,-13,-7,-27
2117,-1,-26,3,4,-38,-11,-7,-28
2118,0,-26,4,4,-38,-9,-7,-29
2119,1,-26,4,4,-37,-9,-7,-29
2120,1,-27,4,4,-37,-8,-8,-29
2121,0,-28,3,4,-38,-9,-9,-28
2122,0,-27,-1,4,-39,-10,-10,-27
2123,0,-25,-4,3,-40,-11,-10,-24
2124,1,-23,-6,3,-40,-12,-10,-22
2125,1,-21,-7,3,-39,-13,-9,-21
2126,1,-18,-7,4,-37,-13,-8,-18
2127,2,-15,-8,4,-34,-14,-6,-15
2128,2,-12,-9,5,-32,-15,-4,-12
2129,2,-10,-11,5,-30,-16,-3,-10
2130,3,-9,-12,6,-29,-18,-2,-9
2131,4,-9,-14,6,-29,-19,-2,-9
2132,5,-11,-15,7,-30,-19,-1,-10
2133,5,-14,-14,8,-32,-19,-1,-12
2134,6,-17,-13,8,-33,-20,-2,-12
2135,6,-18,-13,9,-33,-20,-2,-12
2136,6,-18,-13,9,-32,-20,-2,-11
2137,5,-18,-14,9,-31,-19,-3,-10
2138,4,-18,-14,8,-30,-17,-3,-10
2139,3,-16,-14,8,-28,-17,-4,-9
2140,2,-13,-13,7,-26,-18,-4,-7
2141,1,-11,-11,7,-25,-18,-5,-6
2142,1,-7,-9,7,-24,-19,-6,-4
2143,0,-3,-8,7,-23,-20,-6,-2
2144,0,1,-10,7,-21,-20,-7,0
2145,0,3,-13,7,-20,-21,-8,1
2146,-1,4,-15,8,-19,-22,-8,1
2147,-2,3,-16,8,-18,-24,-8,0
2148,-2,3,-15,8,-18,-24,-9,-1
2149,-2,3,-13,9,-18,-23,-9,-2
2150,-1,2,-11,9,-18,-21,-9,-3
2151,0,2,-10,8,-19,-19,-8,-5
2152,1,1,-9,7,-19,-18,-8,-5
2153,2,1,-9,6,-19,-17,-7,-6
2154,3,0,-9,6,-19,-16,-7,-6
2155,3,0,-10,5,-20,-14,-6,-5
2156,2,1,-11,5,-21,-13,-6,-4
2157,2,3,-13,5,-22,-12,-6,-2
2158,2,5,-14,5,-23,-12,-6,-1
2159,1,7,-14,5,-25,-11,-6,1
2160,1,9,-14,6,-26,-10,-6,2
2161,2,11,-14,6,-26,-9,-5,3
2162,2,12,-13,7,-26,-8,-4,4
2163,3,11,-12,8,-25,-8,-3,5
2164,4,10,-11,9,-24,-9,-2,5
2165,5,8,-9,9,-23,-9,-1,4
2166,7,6,-8,10,-21,-10,-1,4
2167,7,3,-7,10,-21,-11,-1,4
2168,7,2,-7,10,-20,-12,-2,3
2169,6,1,-7,9,-18,-14,-3,2
2170,5,2,-9,9,-17,-15,-4,1
2171,4,3,-9,8,-17,-14,-5,1
2172,4,4,-9,8,-18,-13,-5,0
2173,5,5,-11,8,-19,-12,-5,1
2174,5,5,-12,8,-20,-13,-5,2
2175,6,6,-13,8,-20,-13,-5,3
2176,6,7,-13,8,-19,-14,-5,4
2177,7,8,-13,8,-17,-14,-4,6
2178,8,8,-12,8,-15,-14,-3,7
2179,9,8,-12,7,-13,-12,-2,7
2180,9,7,-12,7,-12,-10,-2,6
2181,9,6,-12,7,-13,-9,-2,5
2182,9,4,-12,6,-15,-8,-2,4
2183,7,2,-12,5,-17,-8,-3,3
2184,6,1,-12,5,-19,-9,-4,3
2185,5,-1,-13,4,-21,-10,-5,3
2186,4,-2,-14,4,-23,-12,-5,3
2187,4,-4,-14,4,-24,-12,-6,3
2188,4,-7,-11,4,-24,-12,-6,2
2189,5,-10,-7,5,-23,-12,-6,0
2190,5,-13,-2,5,-22,-12,-6,-2
2191,5,-15,1,6,-21,-14,-7,-4
2192,4,-15,1,6,-21,-16,-9,-6
2193,3,-14,-2,6,-22,-18,-10,-6
2194,2,-14,-4,7,-23,-18,-11,-6
2195,1,-14,-4,7,-24,-18,-11,-7
2196,1,-14,-2,6,-25,-16,-11,-8
2197,1,-14,0,6,-24,-13,-10,-9
2198,2,-13,1,5,-23,-10,-9,-9
2199,3,-12,1,5,-22,-8,-8,-10
2200,3,-13,3,4,-22,-5,-7,-11
2201,3,-13,4,4,-22,-3,-6,-12
2202,3,-13,3,3,-22,-3,-5,-12
2203,3,-12,0,3,-22,-3,-4,-12
2204,4,-11,-3,3,-22,-4,-4,-11
2205,4,-10,-4,3,-22,-4,-4,-9
2206,4,-9,-3,3,-20,-4,-4,-8
2207,4,-9,-1,4,-18,-5,-4,-6
2208,5,-9,2,3,-16,-6,-4,-5
2209,5,-10,4,3,-14,-7,-5,-5
2210,5,-9,3,2,-12,-10,-5,-4
2211,5,-8,-2,1,-12,-11,-6,-3
2212,5,-6,-6,1,-12,-12,-6,-2
2213,5,-5,-7,1,-14,-12,-6,-2
2214,5,-6,-7,2,-16,-12,-6,-3
2215,5,-8,-4,3,-17,-13,-6,-5
2216,5,-10,-1,4,-17,-14,-7,-6
2217,5,-12,3,5,-17,-15,-8,-8
2218,4,-12,7,6,-17,-14,-9,-8
2219,4,-12,9,5,-17,-12,-10,-9
2220,4,-11,11,4,-16,-9,-10,-10
2221,3,-11,12,4,-17,-6,-10,-12
2222,3,-11,12,3,-18,-3,-10,-13
2223,3,-9,8,3,-18,-1,-9,-14
2224,3,-6,4,3,-18,0,-8,-13
2225,4,-3,-1,3,-17,-1,-7,-11
2226,4,-1,-5,3,-16,-1,-7,-9
2227,3,-1,-6,3,-17,-1,-7,-8
2228,2,-3,-4,3,-19,2,-8,-10
2229,0,-6,-1,3,-20,4,-9,-12
2230,-1,-7,-1,2,-20,3,-10,-12
2231,-1,-5,-4,2,-19,-1,-10,-10
2232,-1,-3,-7,3,-17,-4,-9,-6
2233,0,-1,-9,4,-14,-9,-8,-3
2234,1,2,-12,6,-12,-12,-6,1
2235,1,3,-14,7,-11,-12,-4,3
2236,1,2,-14,9,-11,-12,-3,3
2237,1,1,-15,9,-12,-12,-3,2
2238,1,1,-16,10,-12,-14,-3,1
2239,1,0,-16,10,-13,-17,-3,-1
2240,1,-1,-15,10,-14,-18,-4,-4
2241,0,-2,-13,9,-16,-18,-5,-7
2242,-1,-3,-12,9,-17,-17,-5,-10
2243,-1,-4,-12,9,-17,-16,-5,-11
2244,-3,-4,-11,9,-16,-15,-5,-12
2245,-4,-4,-10,9,-16,-13,-5,-12
2246,-4,-3,-8,8,-15,-11,-5,-13
2247,-4,-2,-6,8,-15,-9,-5,-12
2248,-4,0,-7,8,-14,-8,-5,-11
2249,-4,2,-10,7,-14,-7,-5,-10
2250,-4,3,-14,6,-14,-6,-5,-10
2251,-4,1,-17,5,-16,-6,-5,-13
2252,-5,-2,-18,4,-18,-4,-6,-16
2253,-5,-4,-17,3,-20,-3,-6,-20
2254,-6,-6,-15,3,-21,-2,-5,-22
2255,-5,-6,-14,3,-21,-3,-5,-22
2256,-4,-4,-16,3,-20,-6,-4,-20
2257,-3,-1,-19,3,-18,-9,-3,-17
2258,-2,0,-21,3,-17,-9,-3,-16
2259,-2,-1,-19,4,-17,-8,-3,-16
2260,-2,-1,-17,5,-17,-6,-2,-16
2261,-1,0,-14,5,-16,-4,-2,-15
2262,-1,3,-13,6,-14,-4,-1,-14
2263,-1,5,-12,6,-13,-4,0,-13
2264,-1,6,-12,6,-13,-4,1,-13
2265,-1,6,-13,5,-12,-5,1,-14
2266,-1,5,-13,5,-13,-5,1,-15
2267,-1,5,-13,6,-13,-4,1,-17
2268,-1,5,-14,6,-14,-3,1,-18
2269,-1,6,-15,6,-16,-3,2,-18
2270,0,7,-16,6,-17,-1,2,-17
2271,1,7,-16,5,-17,1,1,-17
2272,1,6,-14,5,-16,2,1,-17
2273,2,4,-12,5,-14,1,0,-17
2274,2,3,-11,6,-12,-1,1,-17
2275,2,2,-13,6,-11,-3,2,-18
2276,1,2,-15,6,-11,-4,2,-19
2277,1,2,-18,6,-12,-4,2,-20
2278,1,1,-21,6,-13,-4,1,-20
2279,2,0,-21,6,-14,-3,0,-21
2280,3,-2,-20,6,-15,-4,-1,-21
2281,3,-3,-18,7,-16,-5,-1,-21
2282,3,-4,-16,7,-16,-6,-1,-21
2283,2,-5,-14,7,-18,-5,-1,-21
2284,1,-6,-11,7,-20,-3,-1,-22
2285,0,-6,-11,7,-21,-2,-2,-21
2286,-1,-5,-13,7,-21,-1,-2,-19
2287,-1,-3,-17,7,-21,-2,-3,-16
2288,-1,0,-22,7,-21,-3,-4,-12
2289,-1,3,-25,7,-20,-4,-4,-9
2290,-1,5,-25,7,-18,-6,-5,-7
2291,-2,3,-21,8,-16,-7,-5,-7
2292,-2,1,-14,8,-13,-7,-6,-7
2293,-3,-3,-9,9,-11,-7,-7,-8
2294,-4,-5,-8,9,-10,-5,-7,-9
2295,-5,-6,-11,9,-10,-4,-8,-11
2296,-6,-6,-15,8,-11,-4,-9,-13
2297,-6,-7,-19,7,-13,-5,-9,-16
2298,-6,-7,-21,6,-13,-6,-9,-19
2299,-6,-6,-20,5,-13,-6,-8,-21
2300,-6,-5,-16,5,-13,-6,-8,-23
2301,-6,-4,-12,4,-13,-5,-7,-24
2302,-6,-1,-12,5,-14,-5,-7,-24
2303,-5,2,-14,5,-15,-7,-7,-24
2304,-5,3,-18,4,-16,-9,-7,-23
2305,-4,3,-21,3,-17,-10,-8,-23
2306,-4,0,-21,2,-18,-10,-9,-25
2307,-4,-5,-18,1,-20,-8,-10,-28
2308,-5,-10,-15,0,-22,-5,-10,-32
2309,-6,-13,-13,0,-22,-3,-11,-34
2310,-6,-14,-14,-1,-22,-2,-11,-35
2311,-5,-15,-15,-1,-23,-1,-11,-35
2312,-4,-15,-16,0,-23,-1,-11,-34
2313,-3,-14,-18,1,-24,-2,-11,-33
2314,-3,-13,-19,2,-25,-3,-11,-32
2315,-2,-12,-19,3,-25,-6,-11,-32
2316,-2,-11,-19,4,-24,-8,-11,-31
2317,-2,-9,-22,4,-23,-10,-11,-30
2318,-2,-6,-24,4,-23,-11,-10,-27
2319,-2,-5,-26,4,-22,-11,-10,-26
2320,-1,-5,-28,5,-22,-11,-9,-25
2321,-1,-5,-30,6,-22,-11,-8,-24
2322,0,-6,-31,7,-21,-13,-7,-23
2323,1,-6,-30,8,-20,-15,-5,-21
2324,2,-6,-29,9,-20,-16,-4,-19
2325,3,-4,-29,9,-20,-16,-3,-17
2326,4,-3,-30,9,-20,-16,-2,-15
2327,4,-3,-28,10,-20,-15,-2,-14
2328,4,-5,-26,10,-19,-14,-2,-14
2329,4,-6,-26,10,-19,-14,-2,-15
2330,3,-7,-27,10,-18,-15,-3,-15
2331,3,-8,-28,9,-19,-15,-4,-14
2332,2,-8,-30,9,-20,-13,-5,-14
2333,1,-8,-31,8,-20,-12,-5,-15
2334,-1,-9,-30,7,-20,-10,-6,-16
2335,-3,-11,-27,6,-20,-9,-7,-17
2336,-5,-13,-24,5,-19,-8,-8,-17
2337,-6,-14,-20,4,-18,-7,-10,-18
2338,-7,-14,-18,4,-18,-6,-11,-18
2339,-8,-13,-19,4,-17,-7,-10,-18
2340,-7,-11,-23,4,-17,-9,-10,-18
2341,-6,-9,-30,5,-17,-11,-9,-18
2342,-5,-8,-37,5,-17,-14,-8,-19
2343,-5,-9,-40,5,-18,-16,-7,-21
2344,-5,-11,-38,5,-19,-16,-8,-23
2345,-6,-14,-32,5,-21,-16,-9,-26
2346,-7,-16,-27,5,-23,-14,-10,-28
2347,-8,-16,-26,5,-24,-14,-10,-28
2348,-8,-15,-28,5,-25,-13,-10,-27
2349,-8,-14,-30,5,-26,-12,-10,-26
2350,-7,-12,-31,5,-26,-11,-10,-24
2351,-6,-9,-32,5,-26,-11,-9,-22
2352,-5,-8,-32,5,-25,-12,-8,-20
2353,-5,-7,-32,6,-23,-13,-8,-18
2354,-4,-7,-33,7,-21,-16,-8,-15
2355,-4,-6,-35,8,-19,-18,-8,-13
2356,-4,-7,-35,9,-18,-20,-8,-12
2357,-4,-8,-34,9,-18,-21,-8,-13
2358,-5,-11,-32,9,-19,-21,-8,-15
2359,-5,-13,-31,9,-20,-19,-8,-18
2360,-5,-14,-28,9,-20,-17,-9,-20
2361,-5,-15,-25,9,-21,-13,-10,-22
2362,-5,-13,-24,9,-22,-9,-11,-22
2363,-5,-9,-24,9,-22,-7,-11,-21
2364,-5,-5,-24,10,-21,-7,-10,-19
2365,-4,-2,-24,10,-19,-8,-10,-18
2366,-4,0,-25,11,-17,-11,-9,-17
2367,-4,1,-25,12,-16,-13,-8,-16
2368,-3,1,-25,12,-15,-12,-7,-16
2369,-3,2,-26,13,-14,-10,-7,-16
2370,-2,4,-28,13,-14,-8,-7,-14
2371,-1,6,-30,14,-13,-7,-7,-12
2372,-1,7,-30,14,-12,-8,-6,-11
2373,0,8,-29,14,-11,-9,-5,-9
2374,0,7,-29,13,-11,-11,-5,-9
2375,1,6,-28,13,-12,-11,-4,-9
2376,1,4,-26,13,-13,-9,-3,-11
2377,1,2,-25,12,-14,-8,-3,-12
2378,2,1,-24,12,-14,-8,-2,-12
2379,2,1,-24,13,-13,-10,-1,-11
2380,3,1,-23,13,-11,-13,0,-9
2381,4,0,-23,13,-10,-14,1,-8
2382,5,1,-25,13,-9,-15,3,-8
2383,6,1,-29,13,-9,-15,4,-8
2384,6,2,-32,13,-9,-13,5,-9
2385,7,3,-34,12,-10,-13,5,-11
2386,7,3,-34,12,-11,-13,5,-13
2387,6,2,-31,11,-12,-13,5,-16
2388,6,0,-27,11,-14,-12,4,-19
2389,5,-1,-25,11,-17,-11,3,-21
2390,4,-2,-25,11,-18,-10,2,-22
2391,2,-2,-27,10,-20,-10,1,-22
2392,1,-3,-28,10,-21,-10,0,-23
2393,-1,-6,-27,10,-23,-9,-2,-25
2394,-4,-9,-24,9,-26,-7,-3,-26
2395,-5,-11,-21,8,-28,-4,-5,-28
2396,-6,-12,-20,8,-30,-2,-7,-28
2397,-6,-12,-19,7,-30,0,-8,-27
2398,-6,-11,-19,7,-29,1,-8,-26
2399,-5,-9,-20,7,-27,-1,-7,-25
2400,-4,-7,-21,7,-24,-3,-6,-24
2401,-4,-6,-22,6,-21,-4,-5,-23
2402,-3,-4,-23,6,-20,-5,-5,-22
2403,-3,-3,-26,6,-18,-5,-4,-21
2404,-2,-2,-28,6,-16,-5,-3,-20
2405,0,-2,-28,6,-14,-5,-2,-19
2406,1,-2,-25,6,-13,-5,-1,-19
2407,1,-3,-22,6,-13,-3,-1,-20
2408,2,-2,-21,7,-13,-2,-1,-21
2409,1,-1,-21,8,-12,-2,-2,-21
2410,1,1,-24,8,-11,-4,-2,-20
2411,0,3,-27,9,-10,-7,-3,-18
2412,-1,4,-30,10,-9,-10,-2,-17
2413,-1,4,-30,10,-9,-12,-1,-16
2414,-1,2,-27,10,-10,-11,0,-19
2415,-1,-3,-23,10,-11,-9,0,-22
2416,-2,-6,-20,10,-13,-8,-1,-24
2417,-3,-9,-18,9,-14,-8,-2,-25
2418,-4,-11,-17,9,-15,-8,-3,-25
2419,-5,-11,-17,9,-16,-9,-4,-24
2420,-6,-10,-17,8,-17,-8,-6,-24
2421,-7,-10,-18,7,-18,-7,-7,-23
2422,-7,-10,-19,7,-20,-6,-8,-23
2423,-7,-11,-21,6,-21,-5,-8,-23
2424,-6,-12,-22,7,-22,-4,-8,-24
2425,-5,-13,-22,7,-23,-3,-8,-24
2426,-5,-14,-22,7,-24,-2,-7,-25
2427,-4,-14,-21,7,-24,-2,-7,-26
2428,-5,-15,-19,7,-23,-4,-6,-26
2429,-5,-15,-17,7,-23,-5,-6,-27
2430,-5,-16,-16,7,-23,-6,-7,-28
2431,-5,-14,-18,7,-22,-6,-7,-28
2432,-5,-11,-22,7,-22,-6,-7,-27
2433,-3,-6,-27,7,-21,-5,-6,-24
2434,-2,-1,-33,8,-20,-4,-5,-20
2435,0,3,-36,8,-20,-4,-4,-18
2436,1,4,-35,9,-19,-5,-3,-17
2437,1,3,-31,9,-18,-4,-3,-17
2438,1,0,-25,9,-19,-3,-3,-19
2439,0,-3,-21,9,-20,-1,-4,-22
2440,-1,-6,-19,8,-20,-1,-4,-23
2441,-2,-8,-20,8,-20,-2,-5,-23
2442,-2,-11,-20,7,-20,-4,-6,-23
2443,-3,-14,-19,6,-20,-6,-6,-24
2444,-4,-16,-18,5,-19,-7,-5,-26
2445,-5,-18,-15,4,-20,-7,-4,-28
2446,-6,-18,-14,4,-21,-6,-4,-29
2447,-6,-18,-14,3,-21,-6,-3,-29
2448,-6,-16,-17,3,-20,-7,-3,-27
2449,-6,-14,-19,3,-19,-7,-3,-25
2450,-6,-13,-20,3,-17,-7,-3,-24
2451,-6,-13,-20,3,-16,-6,-3,-25
2452,-6,-13,-19,3,-16,-5,-4,-25
2453,-7,-12,-20,3,-15,-4,-4,-25
2454,-7,-12,-22,3,-15,-5,-4,-25
2455,-8,-11,-25,2,-14,-7,-4,-24
2456,-9,-10,-28,1,-14,-8,-5,-24
2457,-9,-10,-29,0,-14,-9,-5,-24
2458,-10,-10,-26,-1,-15,-7,-7,-25
2459,-10,-11,-21,-1,-17,-6,-7,-26
2460,-9,-12,-16,0,-17,-6,-7,-28
2461,-9,-12,-15,1,-18,-8,-6,-29
2462,-7,-11,-18,2,-18,-10,-5,-28
2463,-6,-9,-24,4,-18,-14,-4,-27
2464,-4,-7,-31,5,-18,-17,-2,-25
2465,-3,-6,-35,6,-19,-18,-1,-25
2466,-2,-8,-35,6,-20,-17,-1,-26
2467,-2,-11,-31,6,-20,-16,-2,-28
2468,-2,-13,-25,5,-20,-14,-3,-31
2469,-2,-13,-22,5,-19,-13,-3,-31
2470,-2,-10,-23,5,-18,-13,-2,-30
2471,-2,-6,-26,6,-15,-15,-1,-26
2472,-2,-2,-28,6,-14,-16,0,-24
2473,-1,0,-29,7,-13,-15,1,-24
2474,-1,1,-29,7,-13,-13,1,-24
2475,-1,2,-27,7,-14,-10,0,-25
2476,-1,3,-25,6,-16,-8,-1,-27
2477,-1,2,-22,5,-16,-7,-2,-29
2478,-1,1,-19,3,-17,-5,-2,-31
2479,-1,-1,-20,2,-17,-4,-3,-31
2480,-1,-2,-23,1,-17,-4,-3,-30
2481,-1,-1,-26,1,-18,-3,-4,-29
2482,0,-1,-28,2,-19,-2,-4,-28
2483,0,0,-30,2,-20,-2,-4,-27
2484,1,-1,-30,2,-21,-1,-3,-28
2485,1,-2,-28,2,-22,0,-3,-28
2486,2,-2,-26,2,-22,1,-3,-27
2487,2,-1,-26,2,-20,-1,-3,-24
2488,3,2,-27,3,-18,-4,-2,-20
2489,3,4,-27,4,-16,-6,-2,-17
2490,3,4,-26,4,-16,-7,-2,-17
2491,2,2,-25,5,-16,-6,-2,-18
2492,2,1,-25,5,-17,-4,-3,-19
2493,2,1,-26,5,-17,-1,-3,-20
2494,2,2,-27,5,-17,0,-2,-19
2495,3,5,-27,6,-14,-1,-1,-18
2496,3,7,-26,6,-12,-3,0,-17
2497,2,8,-25,6,-10,-3,0,-17
2498,1,8,-26,6,-11,-3,-1,-18
2499,0,7,-26,5,-12,-3,-1,-20
2500,-1,4,-24,5,-14,-2,-2,-24
2501,-2,-1,-22,4,-17,-2,-2,-28
2502,-3,-5,-21,3,-19,-3,-3,-32
2503,-4,-9,-21,2,-21,-4,-3,-34
2504,-5,-12,-22,2,-22,-5,-4,-36
2505,-5,-15,-23,2,-25,-4,-4,-37
2506,-4,-17,-24,3,-27,-3,-4,-37
2507,-4,-20,-23,4,-28,-3,-4,-38
2508,-3,-22,-20,6,-28,-3,-2,-39
2509,-2,-22,-17,8,-27,-4,0,-39
2510,-1,-21,-17,10,-26,-5,1,-37
2511,-1,-18,-18,11,-25,-5,2,-35
2512,-1,-16,-19,11,-24,-4,2,-33
2513,-2,-14,-19,11,-23,-4,1,-31
2514,-2,-13,-19,10,-22,-4,0,-29
2515,-3,-11,-18,9,-22,-4,-1,-28
2516,-3,-9,-18,9,-22,-4,-1,-26
2517,-4,-5,-18,9,-22,-4,-1,-24
2518,-4,-1,-21,9,-21,-3,0,-21
2519,-5,1,-22,9,-20,-2,0,-20
2520,-5,1,-20,9,-19,0,0,-19
2521,-6,0,-18,8,-18,1,-1,-18
2522,-6,-2,-15,7,-16,1,-2,-18
2523,-8,-6,-11,6,-16,2,-4,-19
2524,-9,-9,-8,5,-15,2,-5,-21
2525,-9,-11,-8,4,-15,2,-6,-21
2526,-9,-12,-9,3,-16,1,-7,-20
2527,-8,-12,-11,3,-16,-1,-7,-19
2528,-6,-12,-13,4,-17,-2,-6,-19
2529,-4,-13,-14,5,-18,-4,-5,-19
2530,-2,-14,-13,6,-18,-8,-3,-20
2531,-1,-16,-13,8,-18,-11,-1,-22
2532,-1,-17,-13,9,-18,-14,0,-23
2533,-1,-17,-13,9,-18,-16,1,-24
2534,-2,-17,-13,9,-17,-16,1,-24
2535,-3,-17,-13,9,-18,-14,0,-25
2536,-4,-16,-13,9,-19,-12,-1,-25
2537,-4,-14,-13,9,-21,-11,-1,-24
2538,-5,-13,-13,10,-22,-10,0,-23
2539,-5,-13,-12,10,-23,-8,1,-24
2540,-4,-13,-12,9,-23,-7,2,-24
2541,-4,-13,-13,9,-22,-7,2,-23
2542,-4,-12,-14,9,-20,-8,2,-22
2543,-4,-12,-13,9,-18,-8,2,-20
2544,-4,-12,-14,8,-18,-7,1,-20
2545,-6,-12,-15,8,-18,-6,0,-20
2546,-7,-12,-17,8,-20,-5,-1,-20
2547,-8,-12,-18,7,-20,-4,-2,-21
2548,-9,-11,-21,6,-20,-5,-3,-21
2549,-10,-9,-24,6,-19,-7,-3,-20
2550,-11,-8,-25,6,-18,-8,-3,-19
2551,-13,-9,-22,5,-18,-8,-3,-20
2552,-14,-11,-16,5,-19,-6,-4,-22
2553,-14,-13,-10,5,-20,-4,-4,-25
2554,-14,-14,-7,6,-20,-3,-4,-27
2555,-14,-15,-5,6,-20,-3,-4,-29
2556,-13,-16,-4,6,-19,-3,-4,-31
2557,-12,-16,-3,6,-19,-4,-3,-31
2558,-12,-15,-3,6,-18,-5,-2,-30
2559,-12,-14,-4,5,-17,-5,-2,-28
2560,-12,-13,-4,5,-17,-5,-1,-26
2561,-6,-12,-48,9,-50,-22,-10,-59
2562,-6,-13,-47,8,-48,-22,-10,-58
2563,-6,-14,-45,8,-47,-22,-9,-58
2564,-6,-15,-44,8,-46,-21,-8,-57
2565,-5,-16,-43,8,-46,-19,-7,-58
2566,-5,-17,-41,8,-44,-18,-6,-57
2567,-4,-18,-39,9,-41,-21,-5,-56
2568,-2,-17,-41,9,-36,-25,-4,-53
2569,-1,-15,-44,10,-31,-30,-3,-49
2570,1,-14,-48,10,-28,-34,-3,-47
2571,2,-13,-50,10,-27,-35,-3,-45
2572,2,-12,-53,10,-28,-32,-3,-45
2573,2,-12,-53,10,-32,-26,-3,-46
2574,2,-14,-51,10,-35,-22,-3,-49
2575,2,-18,-48,9,-38,-20,-4,-52
2576,1,-21,-46,9,-39,-20,-5,-53
2577,1,-23,-45,9,-40,-19,-6,-54
2578,0,-25,-43,8,-40,-19,-7,-54
2579,-1,-25,-40,8,-39,-20,-7,-53
2580,-1,-23,-39,9,-38,-22,-8,-51
2581,0,-21,-39,10,-36,-23,-7,-49
2582,1,-19,-38,10,-36,-24,-6,-47
2583,3,-19,-35,11,-36,-23,-4,-47
2584,4,-20,-30,12,-36,-21,-3,-48
2585,5,-18,-28,13,-35,-19,-1,-46
2586,6,-14,-30,13,-35,-18,1,-42
2587,7,-9,-32,14,-33,-18,3,-37
2588,8,-5,-35,14,-31,-19,4,-31
2589,8,-3,-37,14,-29,-19,3,-27
2590,8,-3,-35,14,-28,-16,2,-26
2591,8,-7,-31,13,-28,-11,1,-29
2592,7,-10,-26,12,-28,-6,-1,-32
2593,6,-13,-24,10,-28,-2,-2,-35
2594,6,-14,-25,9,-28,-1,-2,-36
2595,6,-14,-28,9,-28,-3,-1,-36
2596,5,-16,-32,9,-28,-7,-1,-36
2597,5,-17,-36,9,-29,-12,-1,-35
2598,4,-20,-40,9,-30,-18,-1,-36
2599,4,-23,-41,8,-31,-21,-2,-38
2600,4,-25,-40,8,-33,-22,-2,-40
2601,4,-27,-38,8,-36,-20,-1,-43
2602,4,-28,-37,8,-38,-18,0,-45
2603,5,-27,-37,8,-39,-18,1,-45
2604,5,-25,-38,8,-39,-19,2,-45
2605,6,-25,-39,8,-39,-21,3,-46
2606,6,-26,-39,8,-40,-22,2,-46
2607,6,-27,-38,8,-40,-22,1,-47
2608,5,-28,-37,8,-42,-21,0,-48
2609,4,-28,-38,7,-43,-20,-2,-47
2610,4,-27,-39,6,-44,-17,-3,-47
2611,2,-26,-39,6,-45,-16,-5,-46
2612,1,-25,-38,5,-45,-14,-7,-45
2613,-1,-23,-36,5,-44,-13,-9,-44
2614,-3,-22,-33,5,-41,-13,-10,-43
2615,-4,-20,-32,5,-38,-15,-12,-41
2616,-5,-16,-33,6,-34,-17,-12,-37
2617,-6,-12,-36,7,-31,-20,-11,-34
2618,-5,-9,-39,9,-29,-20,-9,-32
2619,-4,-6,-41,10,-28,-19,-6,-30
2620,-3,-3,-43,12,-28,-17,-3,-28
2621,-1,0,-43,13,-29,-16,0,-26
2622,1,2,-42,14,-28,-17,2,-25
2623,2,3,-42,14,-27,-21,2,-23
2624,2,4,-41,14,-24,-26,2,-21
2625,2,3,-40,14,-22,-31,2,-21
2626,1,1,-39,14,-21,-35,1,-22
2627,0,-2,-39,13,-21,-36,1,-24
2628,0,-5,-39,11,-23,-34,0,-27
2629,0,-8,-38,10,-25,-30,0,-31
2630,0,-11,-34,9,-26,-27,0,-34
2631,0,-14,-28,8,-28,-24,0,-36
2632,1,-16,-24,7,-30,-22,1,-38
2633,2,-16,-23,6,-31,-21,2,-39
2634,3,-15,-25,5,-33,-19,3,-39
2635,4,-14,-27,5,-36,-16,4,-40
2636,6,-14,-27,5,-39,-12,5,-40
2637,8,-12,-27,6,-40,-9,5,-40
2638,9,-10,-26,6,-39,-7,5,-38
2639,9,-8,-25,7,-37,-6,5,-36
2640,9,-4,-25,8,-33,-7,4,-32
2641,9,0,-28,9,-28,-10,3,-27
2642,8,4,-30,9,-24,-13,2,-23
2643,7,7,-30,9,-20,-15,2,-20
2644,6,10,-29,8,-17,-16,2,-18
2645,5,13,-30,8,-14,-18,2,-16
2646,4,14,-33,8,-13,-19,2,-15
2647,4,13,-34,9,-12,-19,2,-15
2648,5,11,-35,9,-11,-19,2,-16
2649,6,8,-34,9,-10,-19,3,-17
2650,7,6,-32,9,-10,-19,4,-18
2651,9,3,-30,9,-10,-17,5,-19
2652,11,0,-27,8,-12,-15,6,-21
2653,12,-3,-26,7,-16,-13,6,-24
2654,12,-6,-26,6,-20,-11,5,-26
2655,12,-8,-28,5,-23,-11,4,-28
2656,11,-9,-30,4,-24,-13,3,-29
2657,9,-10,-32,3,-26,-14,1,-30
2658,7,-10,-33,3,-26,-16,-2,-30
2659,5,-9,-33,3,-25,-20,-4,-29
2660,4,-9,-34,3,-25,-22,-5,-28
2661,4,-9,-33,4,-26,-23,-6,-28
2662,5,-9,-32,5,-28,-22,-5,-27
2663,6,-8,-32,6,-29,-20,-3,-26
2664,7,-7,-30,7,-30,-19,-1,-26
2665,7,-5,-28,8,-30,-17,1,-26
2666,7,-3,-29,7,-29,-16,2,-25
2667,7,-1,-31,6,-28,-14,1,-25
2668,6,0,-32,5,-27,-12,0,-25
2669,5,1,-32,5,-26,-9,-2,-25
2670,3,0,-30,4,-27,-6,-4,-26
2671,2,-2,-26,3,-27,-4,-6,-27
2672,0,-4,-22,2,-28,-3,-7,-29
2673,-1,-7,-20,1,-28,-2,-7,-31
2674,-2,-10,-20,0,-30,-1,-6,-34
2675,-2,-14,-19,-1,-31,0,-4,-37
2676,-1,-19,-19,0,-33,-2,-2,-41
2677,1,-21,-21,2,-33,-5,1,-42
2678,4,-22,-24,3,-34,-8,3,-41
2679,6,-20,-29,5,-33,-11,4,-38
2680,9,-17,-34,7,-31,-15,6,-34
2681,10,-14,-37,9,-29,-18,7,-30
2682,11,-13,-37,10,-28,-20,9,-28
2683,12,-13,-35,12,-29,-21,11,-27
2684,12,-15,-33,13,-30,-22,12,-28
2685,11,-17,-33,14,-31,-22,13,-30
2686,11,-18,-34,14,-32,-23,13,-31
2687,9,-20,-34,13,-31,-24,12,-33
2688,8,-21,-34,12,-31,-25,11,-34
2689,6,-21,-32,11,-29,-25,11,-36
2690,4,-20,-31,11,-27,-23,10,-36
2691,2,-19,-29,10,-26,-21,10,-37
2692,1,-17,-28,10,-25,-18,10,-37
2693,-1,-14,-26,10,-23,-16,10,-37
2694,-2,-12,-25,10,-22,-14,11,-36
2695,-3,-10,-25,9,-21,-12,11,-36
2696,-3,-8,-27,9,-21,-12,11,-34
2697,-3,-6,-32,10,-22,-11,11,-33
2698,-2,-5,-37,10,-24,-8,12,-33
2699,-1,-5,-39,11,-27,-6,12,-34
2700,-1,-6,-39,12,-30,-8,13,-35
2701,-1,-7,-38,13,-30,-13,13,-36
2702,-1,-7,-38,13,-28,-21,13,-35
2703,-1,-7,-39,13,-26,-28,13,-33
2704,0,-7,-39,13,-25,-33,12,-31
2705,2,-7,-39,13,-24,-32,11,-29
2706,4,-7,-35,13,-25,-25,11,-28
2707,5,-8,-30,13,-25,-19,10,-27
2708,6,-7,-25,13,-23,-16,10,-25
2709,6,-5,-23,12,-19,-16,9,-22
2710,5,-2,-22,11,-16,-16,8,-19
2711,3,2,-23,11,-13,-16,7,-17
2712,1,5,-25,10,-12,-15,6,-16
2713,-2,7,-28,10,-13,-15,5,-17
2714,-4,6,-31,9,-15,-17,4,-19
2715,-5,5,-33,9,-18,-18,4,-22
2716,-6,2,-33,9,-22,-19,4,-26
2717,-6,-1,-33,10,-25,-18,5,-30
2718,-5,-3,-32,10,-28,-17,6,-32
2719,-2,-5,-33,11,-29,-16,8,-34
2720,2,-5,-34,12,-29,-17,11,-34
2721,5,-5,-36,14,-27,-18,14,-34
2722,8,-4,-36,15,-24,-18,17,-33
2723,10,-2,-35,16,-22,-18,19,-31
2724,10,0,-32,17,-20,-18,21,-29
2725,10,2,-27,18,-17,-17,21,-27
2726,9,4,-22,18,-15,-14,21,-24
2727,9,7,-19,17,-13,-10,19,-21
2728,7,10,-20,16,-11,-9,17,-17
2729,6,13,-22,14,-9,-11,15,-14
2730,4,14,-25,13,-6,-14,12,-12
2731,2,13,-27,11,-3,-20,10,-12
2732,1,12,-28,9,-1,-24,7,-12
2733,-1,9,-28,7,-1,-26,5,-12
2734,-3,7,-26,5,-3,-22,3,-14
2735,-3,6,-25,5,-6,-17,2,-15
2736,-3,5,-24,5,-9,-13,3,-16
2737,-2,4,-24,7,-12,-11,5,-17
2738,0,1,-23,9,-15,-10,8,-19
2739,2,-2,-22,12,-19,-10,11,-21
2740,4,-4,-22,14,-22,-11,14,-23
2741,5,-4,-23,16,-25,-14,16,-25
2742,6,-4,-23,17,-27,-17,17,-27
2743,5,-3,-22,17,-27,-20,18,-28
2744,4,-3,-21,18,-27,-21,17,-29
2745,2,-4,-20,18,-26,-21,15,-30
2746,-1,-4,-19,18,-25,-20,13,-31
2747,-4,-5,-17,18,-25,-18,10,-32
2748,-7,-7,-14,17,-24,-14,7,-33
2749,-9,-9,-11,16,-24,-12,4,-35
2750,-10,-12,-10,14,-22,-12,2,-36
2751,-9,-13,-13,12,-19,-13,0,-35
2752,-9,-12,-18,10,-16,-17,0,-33
2753,-8,-11,-24,8,-13,-20,-1,-31
2754,-7,-10,-30,7,-12,-22,-1,-30
2755,-6,-10,-33,6,-12,-21,0,-30
2756,-5,-11,-33,6,-14,-18,1,-31
2757,-3,-13,-31,6,-18,-15,2,-32
2758,-1,-17,-29,7,-22,-14,4,-34
2759,1,-19,-28,8,-25,-16,5,-36
2760,2,-21,-27,9,-27,-19,7,-37
2761,3,-22,-26,10,-30,-20,7,-38
2762,3,-22,-26,11,-32,-21,7,-39
2763,2,-20,-27,12,-33,-20,7,-38
2764,0,-17,-29,13,-33,-19,6,-36
2765,-2,-15,-29,13,-34,-18,5,-34
2766,-4,-15,-27,13,-33,-16,4,-34
2767,-6,-16,-24,13,-32,-15,3,-35
2768,-7,-17,-21,12,-31,-16,3,-36
2769,-8,-17,-20,11,-30,-16,2,-37
2770,-7,-17,-21,10,-29,-15,2,-38
2771,-7,-16,-23,8,-28,-15,2,-38
2772,-6,-15,-25,5,-27,-15,2,-38
2773,-5,-15,-26,2,-25,-13,1,-38
2774,-5,-15,-26,0,-24,-12,0,-39
2775,-4,-16,-24,-2,-22,-12,-2,-40
2776,-4,-16,-24,-3,-21,-13,-4,-40
2777,-4,-15,-25,-4,-21,-15,-5,-39
2778,-4,-13,-29,-3,-21,-17,-6,-37
2779,-5,-11,-34,-3,-22,-19,-6,-35
2780,-5,-7,-38,-2,-23,-20,-6,-33
2781,-6,-4,-41,0,-25,-18,-5,-31
2782,-7,-1,-39,1,-27,-15,-5,-30
2783,-8,1,-36,2,-28,-13,-5,-29
2784,-8,2,-32,3,-28,-13,-5,-28
2785,-10,1,-27,3,-29,-15,-5,-29
2786,-11,-2,-24,3,-31,-16,-6,-30
2787,-13,-6,-21,3,-33,-16,-7,-33
2788,-15,-11,-19,3,-35,-16,-8,-37
2789,-16,-15,-18,2,-37,-14,-8,-41
2790,-15,-19,-17,2,-37,-13,-8,-45
2791,-14,-22,-15,1,-36,-11,-7,-48
2792,-13,-23,-14,1,-33,-10,-6,-49
2793,-12,-22,-14,1,-30,-10,-6,-48
2794,-11,-19,-17,2,-28,-12,-5,-45
2795,-11,-14,-21,2,-28,-13,-5,-42
2796,-11,-9,-26,2,-29,-15,-5,-39
2797,-11,-6,-29,2,-31,-15,-5,-37
2798,-11,-5,-29,2,-34,-13,-5,-37
2799,-10,-7,-26,3,-37,-10,-5,-39
2800,-9,-10,-22,3,-38,-9,-5,-41
2801,-8,-12,-19,4,-37,-9,-4,-41
2802,-7,-12,-18,5,-34,-11,-4,-38
2803,-6,-10,-19,6,-30,-13,-5,-34
2804,-6,-9,-20,6,-26,-14,-5,-30
2805,-7,-8,-22,6,-22,-15,-5,-27
2806,-8,-8,-23,6,-19,-17,-5,-24
2807,-8,-8,-24,6,-18,-18,-5,-23
2808,-9,-9,-25,6,-18,-18,-6,-23
2809,-9,-10,-25,6,-18,-19,-6,-24
2810,-8,-11,-24,6,-19,-19,-5,-24
2811,-7,-11,-22,5,-19,-20,-4,-25
2812,-6,-12,-20,4,-20,-20,-3,-27
2813,-6,-14,-19,4,-22,-19,-3,-29
2814,-5,-15,-21,3,-24,-20,-2,-32
2815,-6,-16,-24,2,-27,-21,-3,-34
2816,-7,-17,-28,0,-28,-21,-4,-36
2817,-9,-18,-29,-2,-29,-21,-6,-38
2818,-12,-19,-27,-3,-28,-21,-7,-40
2819,-14,-21,-22,-4,-28,-20,-9,-42
2820,-16,-23,-15,-4,-28,-17,-10,-45
2821,-16,-25,-10,-4,-29,-14,-9,-46
2822,-16,-25,-9,-3,-30,-12,-8,-45
2823,-16,-23,-11,-2,-30,-13,-7,-42
2824,-15,-20,-13,0,-29,-15,-5,-38
2825,-14,-19,-15,1,-28,-16,-4,-36
2826,-13,-19,-15,1,-29,-14,-5,-34
2827,-13,-21,-12,1,-31,-11,-6,-34
2828,-13,-22,-8,1,-32,-8,-7,-34
2829,-13,-22,-9,1,-31,-7,-8,-31
2830,-12,-19,-13,2,-29,-8,-9,-26
2831,-11,-14,-18,3,-27,-11,-8,-21
2832,-9,-10,-22,3,-25,-14,-6,-17
2833,-7,-9,-25,4,-24,-15,-4,-16
2834,-6,-9,-24,4,-24,-13,-3,-16
2835,-6,-10,-22,4,-26,-11,-2,-19
2836,-6,-11,-20,3,-28,-9,-2,-22
2837,-7,-12,-19,3,-29,-8,-2,-24
2838,-9,-12,-17,3,-29,-9,-3,-25
2839,-11,-14,-14,3,-29,-10,-5,-27
2840,-12,-16,-12,3,-29,-11,-7,-30
2841,-13,-19,-10,2,-29,-11,-8,-32
2842,-13,-22,-11,1,-30,-11,-9,-35
2843,-12,-25,-12,0,-31,-10,-9,-38
2844,-12,-27,-13,0,-33,-10,-8,-40
2845,-11,-29,-13,1,-35,-10,-7,-42
2846,-10,-30,-11,2,-36,-8,-5,-43
2847,-11,-30,-8,3,-38,-6,-5,-43
2848,-11,-28,-6,3,-38,-5,-4,-43
2849,-12,-25,-6,4,-37,-6,-4,-41
2850,-13,-21,-8,4,-35,-8,-3,-39
2851,-13,-17,-12,4,-34,-10,-3,-37
2852,-13,-15,-16,3,-33,-11,-3,-35
2853,-14,-14,-18,3,-33,-11,-4,-35
2854,-14,-16,-17,2,-34,-9,-5,-36
2855,-15,-18,-16,1,-35,-7,-6,-38
2856,-16,-19,-15,0,-37,-5,-7,-38
2857,-16,-17,-17,-1,-38,-4,-8,-37
2858,-16,-13,-21,-1,-38,-5,-8,-35
2859,-15,-8,-26,-2,-38,-7,-7,-32
2860,-13,-5,-30,-2,-36,-11,-6,-28
2861,-11,-5,-30,-1,-35,-13,-5,-27
2862,-9,-6,-28,0,-34,-13,-3,-26
2863,-7,-6,-26,1,-33,-13,-1,-25
2864,-6,-7,-24,3,-33,-12,1,-24
2865,-5,-7,-23,4,-34,-11,2,-24
2866,-5,-8,-21,4,-34,-10,1,-24
2867,-5,-10,-19,3,-35,-8,0,-24
2868,-6,-12,-16,2,-36,-7,-3,-26
2869,-7,-13,-14,1,-36,-6,-5,-28
2870,-8,-14,-13,1,-36,-5,-7,-29
2871,-10,-14,-13,0,-35,-7,-8,-30
2872,-12,-13,-12,0,-33,-9,-9,-29
2873,-13,-13,-10,-1,-30,-10,-10,-28
2874,-13,-13,-9,-1,-28,-11,-10,-26
2875,-13,-12,-9,-1,-27,-11,-9,-24
2876,-12,-10,-11,0,-27,-10,-8,-22
2877,-11,-9,-12,1,-28,-8,-7,-21
2878,-9,-9,-11,3,-29,-6,-6,-20
2879,-7,-8,-11,4,-29,-5,-4,-18
2880,-4,-7,-12,6,-28,-5,-2,-16
2881,-3,-8,-13,7,-28,-6,0,-16
2882,-2,-10,-13,8,-30,-6,1,-18
2883,-2,-13,-15,8,-32,-7,2,-21
2884,-3,-14,-17,7,-34,-8,2,-23
2885,-4,-15,-18,6,-36,-8,2,-25
2886,-5,-14,-18,5,-37,-8,2,-27
2887,-5,-11,-19,5,-38,-9,2,-28
2888,-6,-9,-19,4,-38,-9,2,-30
2889,-8,-8,-19,4,-39,-8,1,-32
2890,-9,-9,-16,4,-40,-6,-1,-36
2891,-11,-10,-14,4,-40,-5,-2,-38
2892,-11,-10,-13,5,-40,-4,-3,-38
2893,-11,-8,-15,6,-38,-5,-3,-36
2894,-10,-7,-16,7,-37,-6,-3,-34
2895,-10,-6,-17,9,-35,-7,-2,-32
2896,-9,-6,-19,10,-34,-7,-1,-31
2897,-8,-5,-20,10,-33,-7,1,-28
2898,-7,-5,-20,11,-33,-6,2,-26
2899,-6,-5,-18,11,-33,-5,3,-25
2900,-6,-6,-14,11,-32,-3,3,-23
2901,-5,-7,-11,11,-31,-1,3,-22
2902,-5,-7,-10,10,-30,0,2,-20
2903,-5,-6,-13,10,-29,-1,2,-18
2904,-4,-5,-17,10,-28,-4,2,-16
2905,-3,-2,-21,9,-28,-7,1,-14
2906,-3,0,-23,9,-27,-9,1,-13
2907,-4,1,-23,10,-25,-10,-1,-13
2908,-5,-1,-22,10,-25,-9,-1,-14
2909,-7,-2,-20,10,-25,-8,-2,-16
2910,-9,-4,-19,10,-26,-7,-2,-19
2911,-10,-6,-19,11,-28,-8,-2,-22
2912,-11,-7,-17,11,-30,-8,-1,-25
2913,-11,-8,-13,11,-31,-9,-1,-28
2914,-11,-9,-10,11,-33,-8,-1,-30
2915,-11,-9,-8,11,-34,-6,0,-32
2916,-11,-9,-7,11,-36,-4,0,-34
2917,-11,-9,-8,10,-37,-1,0,-36
2918,-10,-10,-11,10,-37,-1,-1,-38
2919,-10,-11,-16,10,-37,-3,-1,-39
2920,-9,-12,-20,10,-37,-6,-1,-39
2921,-9,-13,-23,10,-37,-8,-1,-40
2922,-9,-15,-24,10,-38,-10,-2,-40
2923,-9,-16,-22,10,-38,-10,-2,-40
2924,-9,-16,-21,10,-38,-9,-3,-38
2925,-10,-16,-19,10,-37,-8,-3,-37
2926,-10,-15,-19,10,-35,-7,-3,-34
2927,-11,-14,-19,10,-35,-8,-3,-32
2928,-12,-12,-19,10,-34,-8,-3,-31
2929,-12,-10,-18,10,-33,-8,-3,-28
2930,-12,-7,-18,10,-30,-9,-3,-25
2931,-11,-3,-19,10,-27,-10,-2,-21
2932,-11,2,-21,11,-23,-10,-2,-16
2933,-10,6,-22,11,-20,-9,-1,-12
2934,-11,9,-23,11,-18,-8,-1,-10
2935,-11,10,-22,11,-16,-6,-1,-9
2936,-12,10,-20,10,-14,-7,-2,-9
2937,-13,9,-18,10,-12,-8,-3,-10
2938,-14,8,-17,10,-11,-9,-5,-11
2939,-15,7,-16,10,-10,-10,-6,-11
2940,-16,6,-15,10,-10,-9,-7,-12
2941,-16,6,-13,9,-11,-7,-8,-14
2942,-16,5,-13,9,-13,-5,-9,-15
2943,-16,4,-14,9,-16,-5,-9,-16
2944,-16,4,-16,8,-19,-5,-9,-17
2945,-15,3,-19,7,-23,-3,-8,-18
2946,-15,2,-20,6,-28,-2,-8,-19
2947,-15,-1,-18,6,-33,2,-7,-22
2948,-16,-6,-11,4,-37,6,-8,-26
2949,-18,-12,-4,3,-41,10,-8,-30
2950,-19,-17,1,2,-42,10,-9,-33
2951,-21,-19,0,1,-41,9,-11,-33
2952,-22,-20,-4,0,-40,8,-13,-32
2953,-22,-19,-9,-1,-40,6,-14,-30
2954,-23,-18,-13,-2,-40,5,-16,-29
2955,-23,-19,-14,-2,-40,6,-17,-29
2956,-24,-19,-12,-3,-39,6,-17,-30
2957,-24,-20,-9,-3,-36,6,-17,-31
2958,-23,-19,-7,-3,-31,5,-17,-29
2959,-21,-17,-8,-2,-26,3,-16,-25
2960,-19,-14,-8,-1,-20,2,-15,-20
2961,-16,-10,-8,2,-15,1,-13,-14
2962,-13,-6,-8,5,-10,1,-12,-9
2963,-11,-2,-8,7,-6,0,-10,-5
2964,-9,3,-10,9,-2,-1,-8,0
2965,-9,6,-12,10,0,-3,-7,2
2966,-11,8,-14,9,-1,-5,-7,2
2967,-13,9,-16,8,-3,-7,-8,0
2968,-16,7,-17,6,-7,-9,-10,-3
2969,-18,5,-15,4,-12,-8,-11,-7
2970,-18,1,-10,3,-17,-6,-12,-11
2971,-18,-4,-6,2,-22,-5,-12,-16
2972,-17,-9,-2,2,-25,-6,-11,-19
2973,-16,-15,0,3,-28,-8,-9,-23
2974,-16,-21,2,4,-31,-10,-7,-26
2975,-15,-25,3,5,-33,-10,-6,-28
2976,-14,-28,4,6,-36,-7,-5,-29
2977,-13,-29,6,6,-39,-1,-4,-29
2978,-12,-28,6,6,-41,4,-4,-28
2979,-11,-25,4,5,-41,4,-4,-26
2980,-9,-21,-2,6,-39,1,-3,-23
2981,-8,-16,-9,7,-35,-3,-1,-20
2982,-5,-10,-14,8,-31,-6,1,-17
2983,-3,-6,-17,9,-27,-5,3,-15
2984,-1,-4,-15,11,-23,-1,5,-14
2985,1,-4,-11,12,-19,2,6,-14
2986,1,-2,-8,13,-14,2,7,-12
2987,0,1,-8,13,-9,-1,6,-10
2988,-2,4,-10,13,-7,-4,4,-7
2989,-5,7,-13,12,-8,-6,0,-6
2990,-9,8,-15,10,-11,-5,-4,-5
2991,-12,6,-13,8,-14,-4,-8,-7
2992,-15,3,-8,7,-18,-3,-11,-9
2993,-17,-1,-4,6,-20,-4,-13,-12
2994,-17,-3,-2,6,-22,-5,-13,-13
2995,-16,-4,-2,6,-22,-7,-13,-14
2996,-15,-5,-4,6,-24,-7,-12,-14
2997,-13,-7,-5,7,-25,-6,-11,-14
2998,-12,-8,-5,7,-27,-6,-11,-14
2999,-11,-9,-3,8,-27,-6,-10,-12
3000,-10,-10,-2,9,-26,-8,-9,-11
3001,-10,-11,-3,9,-26,-9,-8,-10
3002,-11,-12,-4,9,-25,-8,-7,-10
3003,-10,-13,-5,9,-25,-7,-6,-10
3004,-9,-13,-7,9,-24,-7,-6,-9
3005,-9,-11,-10,9,-23,-7,-6,-8
3006,-8,-9,-12,8,-21,-7,-8,-6
3007,-9,-7,-13,6,-20,-8,-9,-5
3008,-9,-6,-12,5,-20,-7,-11,-6
3009,-10,-5,-11,3,-22,-4,-13,-8
3010,-11,-5,-9,3,-24,0,-14,-11
3011,-11,-5,-8,3,-26,2,-15,-13
3012,-11,-4,-9,3,-28,3,-15,-13
3013,-10,-3,-12,4,-29,0,-14,-12
3014,-9,-2,-16,6,-29,-2,-11,-12
3015,-8,-3,-17,7,-30,-3,-9,-12
3016,-7,-4,-16,9,-31,-3,-7,-14
3017,-6,-5,-14,10,-31,-3,-5,-16
3018,-5,-5,-12,11,-29,-4,-4,-15
3019,-5,-4,-10,13,-26,-4,-3,-13
3020,-4,-2,-10,14,-23,-5,-3,-10
3021,-3,3,-12,15,-21,-8,-2,-6
3022,-3,7,-13,16,-20,-11,-2,-3
3023,-3,10,-15,15,-21,-12,-2,-2
3024,-4,12,-16,15,-23,-11,-3,-2
3025,-4,12,-16,14,-25,-9,-3,-2
3026,-4,11,-13,13,-27,-6,-3,-3
3027,-4,8,-9,13,-28,-2,-3,-5
3028,-4,4,-4,12,-29,2,-3,-6
3029,-4,1,0,11,-27,4,-3,-6
3030,-4,-3,3,11,-25,4,-3,-6
3031,-4,-6,5,10,-22,4,-3,-6
3032,-3,-7,4,11,-19,3,-2,-6
3033,-2,-7,4,11,-17,3,0,-7
3034,-1,-6,5,12,-15,2,2,-8
3035,-1,-6,6,14,-13,1,4,-9
3036,-1,-5,7,14,-12,0,4,-9
3037,-1,-3,7,15,-11,-1,4,-7
3038,-2,-1,6,15,-9,-5,4,-5
3039,-2,3,4,15,-8,-8,3,-1
3040,-2,6,1,15,-7,-11,3,3
3041,-1,8,-2,15,-7,-11,3,6
3042,-1,10,-4,15,-7,-10,2,7
3043,-2,10,-5,15,-9,-7,2,7
3044,-3,9,-2,14,-12,-2,1,5
3045,-5,6,3,14,-15,4,-1,1
3046,-7,3,6,14,-18,7,-2,-2
3047,-9,0,9,14,-19,7,-4,-4
3048,-9,-3,9,14,-20,5,-4,-4
3049,-9,-5,9,14,-19,3,-4,-4
3050,-9,-6,9,15,-19,1,-4,-4
3051,-8,-7,9,16,-19,0,-3,-4
3052,-8,-6,9,16,-19,1,-2,-4
3053,-8,-5,9,17,-20,2,-2,-4
3054,-7,-4,8,16,-21,2,-3,-4
3055,-6,-2,5,15,-21,1,-3,-4
3056,-6,0,2,14,-21,-1,-4,-4
3057,-6,3,-2,13,-19,-3,-5,-3
3058,-6,5,-3,13,-17,-4,-6,0
3059,-6,8,-3,13,-15,-4,-6,3
3060,-5,11,-2,14,-12,-3,-5,6
3061,-5,11,1,15,-10,-1,-4,8
3062,-4,10,4,16,-8,0,-3,9
3063,-3,9,5,17,-7,0,-2,10
3064,-3,8,6,17,-6,-1,0,10
3065,-3,7,6,18,-6,-2,2,9
3066,-3,6,5,18,-6,-4,4,9
3067,-3,7,2,18,-5,-5,6,10
3068,-3,8,-2,18,-5,-5,7,12
3069,-4,9,-5,18,-6,-5,8,12
3070,-5,9,-6,17,-7,-4,8,12
3071,-6,8,-5,17,-9,-2,7,10
3072,-7,6,-2,16,-11,-1,5,7
3073,-8,3,2,16,-14,0,4,4
3074,-9,2,4,15,-16,1,3,2
3075,-9,2,4,15,-15,-1,2,2
3076,-9,3,4,14,-13,-3,1,4
3077,-9,4,3,14,-10,-5,1,6
3078,-8,6,3,13,-6,-7,1,9
3079,-8,9,2,13,-4,-8,1,11
3080,-8,11,1,14,-3,-8,1,13
3081,-8,14,0,15,-3,-7,2,14
3082,-8,17,-1,16,-3,-6,2,14
3083,-8,18,-2,16,-2,-6,2,16
3084,-8,19,-3,16,-1,-6,2,16
3085,-7,18,-4,16,-1,-6,2,16
3086,-7,16,-5,15,-2,-6,2,15
3087,-7,14,-6,14,-4,-4,2,13
3088,-8,10,-4,13,-7,-1,2,10
3089,-9,5,-1,11,-11,2,2,5
3090,-10,0,2,10,-14,5,1,1
3091,-12,-4,5,10,-16,6,1,-3
3092,-13,-8,7,10,-18,6,1,-5
3093,-13,-13,10,10,-19,5,0,-7
3094,-14,-17,13,10,-20,4,-1,-9
3095,-14,-21,17,10,-21,3,-2,-11
3096,-14,-25,19,10,-22,4,-3,-12
3097,-14,-26,20,10,-24,7,-3,-11
3098,-13,-26,20,10,-25,9,-4,-9
3099,-12,-24,20,11,-24,10,-3,-6
3100,-10,-20,19,11,-22,10,-2,-2
3101,-9,-16,18,12,-20,10,-2,2
3102,-7,-10,17,12,-17,9,-1,6
3103,-7,-4,16,12,-13,7,-1,10
3104,-6,2,14,11,-10,5,-1,14
3105,-6,8,10,11,-7,3,-2,17
3106,-6,13,6,10,-3,-1,-2,21
3107,-7,16,3,9,1,-5,-2,22
3108,-7,17,2,8,2,-7,-2,22
3109,-8,17,3,7,3,-8,-3,21
3110,-9,16,5,6,4,-7,-3,19
3111,-9,15,7,5,4,-4,-3,17
3112,-9,14,7,5,3,-1,-4,16
3113,-9,13,6,4,1,2,-4,14
3114,-10,12,4,4,-1,3,-5,14
3115,-10,10,3,4,-3,4,-5,13
3116,-10,7,5,4,-6,5,-6,11
3117,-10,2,10,3,-9,6,-6,8
3118,-10,-3,14,3,-11,7,-7,5
3119,-9,-6,16,3,-12,8,-7,4
3120,-9,-8,18,3,-14,10,-6,4
3121,-9,-10,19,3,-17,12,-6,3
3122,-10,-12,21,3,-20,16,-6,1
3123,-12,-14,21,2,-23,19,-7,-1
3124,-13,-16,19,2,-25,21,-8,-4
3125,-15,-18,16,1,-27,20,-9,-7
3126,-16,-19,12,1,-27,17,-10,-9
3127,-16,-18,9,1,-26,12,-11,-10
3128,-16,-17,9,1,-23,8,-11,-10
3129,-15,-14,10,2,-20,5,-11,-9
3130,-15,-12,10,2,-18,4,-11,-9
3131,-15,-9,9,2,-17,3,-12,-8
3132,-14,-8,6,3,-16,1,-13,-6
3133,-14,-7,2,4,-16,-1,-13,-5
3134,-14,-7,0,5,-16,-1,-13,-3
3135,-13,-8,1,5,-16,0,-13,-2
3136,-13,-9,3,6,-16,3,-12,-2
3137,-11,-9,5,7,-17,6,-10,-1
3138,-10,-9,5,8,-17,6,-9,1
3139,-8,-8,4,9,-17,4,-7,3
3140,-5,-7,5,10,-16,0,-5,5
3141,-4,-7,6,11,-14,-4,-4,7
3142,-3,-7,8,12,-12,-5,-4,10
3143,-3,-8,10,13,-12,-4,-4,11
3144,-3,-9,10,13,-12,-2,-4,13
3145,-3,-10,10,14,-12,0,-4,13
3146,-3,-11,10,14,-13,2,-4,12
3147,-3,-12,10,14,-14,1,-4,10
3148,-4,-13,11,13,-13,0,-4,9
3149,-5,-13,12,12,-13,0,-5,7
3150,-7,-14,12,12,-14,0,-5,6
3151,-8,-13,10,11,-14,1,-5,4
3152,-8,-13,9,10,-16,2,-6,3
3153,-7,-13,9,10,-17,5,-6,2
3154,-6,-14,13,10,-16,9,-7,1
3155,-6,-13,17,10,-14,11,-7,2
3156,-5,-11,20,9,-11,11,-8,5
3157,-6,-7,19,9,-7,9,-10,9
3158,-6,-4,16,7,-5,9,-11,14
3159,-8,0,11,6,-4,10,-13,17
3160,-9,3,8,5,-5,11,-14,20
3161,-9,4,7,4,-5,12,-14,21
3162,-8,3,7,3,-6,12,-14,20
3163,-8,1,8,3,-7,11,-14,19
3164,-7,-2,9,2,-9,11,-14,16
3165,-7,-4,10,2,-12,12,-14,13
3166,-8,-4,10,1,-14,14,-14,11
3167,-9,-4,8,1,-16,13,-15,10
3168,-10,-3,8,1,-16,12,-15,9
3169,-10,-3,8,1,-15,10,-15,8
3170,-10,-4,8,1,-14,10,-15,7
3171,-10,-6,8,2,-14,12,-14,7
3172,-10,-7,9,3,-14,15,-13,6
3173,-10,-8,11,3,-16,18,-12,5
3174,-10,-8,13,4,-17,20,-11,5
3175,-10,-8,14,5,-17,19,-11,5
3176,-10,-9,16,5,-17,18,-10,4
3177,-10,-10,17,4,-18,17,-10,3
3178,-10,-9,15,4,-19,16,-9,3
3179,-9,-8,11,4,-19,15,-9,4
3180,-7,-6,7,4,-19,14,-8,5
3181,-7,-5,7,4,-18,13,-7,5
3182,-6,-4,8,5,-17,12,-6,6
3183,-5,-3,11,6,-15,12,-6,7
3184,-5,-1,12,7,-12,11,-5,10
3185,-4,4,10,8,-11,11,-4,14
3186,-4,8,6,9,-10,11,-4,18
3187,-4,13,1,9,-11,10,-3,22
3188,-3,14,-1,9,-11,9,-3,23
3189,-3,14,-1,9,-12,8,-3,23
3190,-4,10,1,9,-13,7,-4,20
3191,-5,6,4,8,-15,6,-5,17
3192,-6,3,6,8,-15,5,-6,15
3193,-6,0,8,7,-15,5,-7,14
3194,-7,0,10,7,-13,5,-8,14
3195,-7,0,13,7,-12,5,-8,15
3196,-7,0,16,8,-9,5,-8,16
3197,-7,0,20,8,-8,8,-7,15
3198,-7,-2,24,8,-9,11,-6,14
3199,-6,-5,27,8,-10,13,-6,11
3200,-5,-8,27,8,-10,13,-6,9
3201,-4,-8,26,8,-10,12,-6,9
3202,-3,-7,22,8,-9,11,-7,10
3203,-2,-5,18,8,-7,9,-7,13
3204,-1,-2,14,7,-5,6,-6,17
3205,0,1,10,6,-3,4,-6,20
3206,2,3,9,6,-1,4,-6,22
3207,3,4,10,6,1,5,-6,24
3208,4,4,13,6,3,7,-6,26
3209,5,4,19,7,5,9,-6,27
3210,5,4,22,7,6,12,-6,29
3211,4,6,20,7,8,13,-6,31
3212,4,9,14,7,8,12,-5,33
3213,3,12,8,7,8,10,-4,34
3214,3,15,1,7,7,6,-4,35
3215,3,16,-2,8,7,1,-4,35
3216,2,14,0,8,7,-2,-4,34
3217,1,10,3,8,7,-5,-5,31
3218,0,7,7,8,6,-6,-5,28
3219,-1,4,9,8,4,-5,-5,25
3220,-1,3,10,8,1,-4,-5,23
3221,-1,1,10,8,-1,-4,-4,21
3222,-1,0,10,7,-2,-5,-3,19
3223,-2,-2,10,7,-3,-4,-3,18
3224,-3,-3,12,7,-4,-2,-4,16
3225,-4,-4,13,7,-5,1,-4,16
3226,-5,-4,15,7,-7,3,-5,14
3227,-5,-4,16,7,-8,5,-5,13
3228,-6,-3,16,8,-9,7,-5,13
3229,-5,-2,13,8,-9,9,-4,13
3230,-5,-1,11,8,-8,10,-4,13
3231,-5,-1,11,7,-7,11,-5,13
3232,-4,0,11,7,-5,10,-5,14
3233,-3,2,10,6,-3,9,-5,16
3234,-2,4,9,6,-2,9,-5,17
3235,-2,5,10,6,-2,9,-5,18
3236,-2,6,12,5,-3,10,-5,18
3237,-3,5,15,5,-3,11,-5,17
3238,-3,3,19,4,-3,12,-6,16
3239,-3,1,23,4,-3,12,-7,15
3240,-3,-1,26,4,-2,13,-8,14
3241,-2,-1,27,4,-3,15,-8,14
3242,-2,-1,26,3,-4,17,-7,14
3243,-2,-1,25,3,-4,18,-7,14
3244,-1,0,23,3,-4,17,-6,13
3245,-1,-1,20,3,-3,14,-4,13
3246,1,-1,15,3,-3,10,-3,12
3247,2,-1,10,3,-2,5,-3,13
3248,2,-1,6,4,-1,2,-2,14
3249,2,-3,5,4,0,0,-3,15
3250,2,-4,7,4,0,1,-3,16
3251,2,-7,10,4,1,2,-2,16
3252,2,-8,13,4,2,3,-2,16
3253,2,-8,14,3,3,4,-1,15
3254,2,-8,14,3,3,4,0,15
3255,2,-7,14,2,4,4,1,14
3256,3,-5,12,2,5,5,1,15
3257,3,-3,11,1,5,6,1,15
3258,3,-1,9,1,5,6,0,15
3259,3,0,8,0,5,6,-2,15
3260,2,2,6,0,5,5,-3,15
3261,1,3,5,0,4,6,-4,14
3262,1,4,6,0,3,8,-4,13
3263,1,5,9,-1,1,11,-4,13
3264,1,6,11,-1,0,13,-3,14
3265,1,6,13,-1,0,14,-3,16
3266,1,7,14,-1,0,13,-4,19
3267,1,6,16,0,0,12,-4,21
3268,1,4,19,0,1,10,-4,21
3269,1,3,22,1,2,10,-4,21
3270,1,2,24,1,2,11,-4,21
3271,0,3,25,1,2,13,-3,22
3272,-1,4,24,2,2,15,-2,22
3273,-1,5,22,3,2,16,-2,22
3274,-2,4,23,3,3,16,-1,21
3275,-2,1,26,4,3,15,-1,19
3276,-2,-3,30,5,4,14,-1,17
3277,-2,-7,32,5,4,13,-2,14
3278,-2,-9,30,5,3,12,-3,13
3279,-2,-9,26,4,1,11,-3,12
3280,-3,-9,22,3,1,10,-3,12
3281,-2,-8,20,2,1,11,-3,13
3282,-2,-6,19,1,2,12,-3,14
3283,-2,-4,21,1,4,12,-2,17
3284,-1,-2,22,1,7,12,-2,19
3285,-1,0,24,1,9,11,-2,20
3286,-1,1,25,1,12,10,-3,21
3287,-1,1,26,1,14,9,-4,21
3288,-1,2,26,1,15,8,-5,22
3289,-1,4,24,0,14,7,-7,24
3290,-1,8,20,-1,13,6,-7,26
3291,0,12,15,-1,11,4,-7,29
3292,2,15,12,-1,10,4,-7,31
3293,3,15,13,0,7,4,-6,31
3294,4,12,17,1,5,7,-5,29
3295,4,9,20,2,3,9,-4,27
3296,4,7,22,2,1,11,-3,25
3297,4,5,21,3,-1,9,-3,25
3298,3,4,21,3,-1,8,-3,24
3299,3,2,23,2,0,8,-2,23
3300,2,-1,26,2,1,9,-2,22
3301,1,-5,30,1,2,11,-2,20
3302,-1,-8,32,0,3,12,-3,19
3303,-2,-9,33,0,5,12,-3,19
3304,-3,-10,33,0,7,12,-3,19
3305,-3,-9,34,-1,8,11,-3,19
3306,-3,-9,34,-1,9,10,-3,19
3307,-3,-7,34,-1,11,11,-3,20
3308,-3,-4,30,-2,12,11,-3,22
3309,-3,1,24,-2,13,12,-3,25
3310,-3,5,19,-1,13,14,-3,27
3311,-3,8,17,-1,12,15,-3,29
3312,-4,8,18,0,11,16,-3,30
3313,-4,6,21,0,12,16,-3,29
3314,-4,4,23,0,12,15,-4,27
3315,-5,2,24,-1,14,13,-6,27
3316,-4,2,25,-2,17,11,-7,28
3317,-4,2,25,-3,18,11,-7,30
3318,-3,1,26,-3,18,13,-8,31
3319,-3,-1,27,-3,18,16,-7,32
3320,-3,-1,26,-3,16,17,-7,32
3321,-3,-1,23,-2,14,17,-7,33
3322,-4,-1,19,-2,12,17,-7,33
3323,-4,-1,17,-2,10,17,-6,32
3324,-3,-1,17,-3,8,19,-6,31
3325,-3,-3,20,-4,7,20,-6,28
3326,-3,-6,25,-5,7,19,-6,25
3327,-3,-9,29,-7,8,17,-6,22
3328,-3,-10,28,-8,9,13,-6,21
3329,-3,-10,24,-9,9,10,-5,21
3330,-3,-10,21,-10,9,9,-5,20
3331,-4,-10,18,-11,7,10,-6,20
3332,-5,-10,16,-11,6,10,-7,20
3333,-6,-11,15,-11,5,10,-8,20
3334,-6,-11,16,-10,6,9,-9,20
3335,-6,-11,16,-9,6,9,-8,19
3336,-6,-12,16,-9,6,10,-8,19
3337,-6,-14,18,-8,5,11,-7,17
3338,-6,-16,22,-7,5,11,-7,16
3339,-5,-18,24,-6,4,9,-7,15
3340,-5,-20,25,-6,4,6,-8,15
3341,-5,-21,25,-6,4,5,-8,14
3342,-5,-22,24,-6,3,7,-8,13
3343,-5,-22,24,-6,1,10,-8,13
3344,-5,-21,23,-6,0,12,-8,13
3345,-5,-20,22,-5,0,12,-9,14
3346,-5,-18,21,-5,1,10,-9,17
3347,-5,-16,21,-5,2,9,-9,18
3348,-6,-15,21,-5,2,9,-9,18
3349,-7,-13,22,-6,3,10,-10,18
3350,-8,-12,23,-7,3,13,-10,17
3351,-8,-10,25,-8,4,16,-10,16
3352,-7,-10,25,-8,4,17,-11,16
3353,-6,-10,26,-8,5,17,-10,16
3354,-4,-11,27,-8,5,18,-10,17
3355,-4,-12,29,-7,3,19,-10,17
3356,-3,-14,32,-7,2,21,-9,17
3357,-3,-14,35,-7,-1,23,-9,16
3358,-4,-14,37,-7,-3,25,-9,17
3359,-4,-13,37,-8,-5,26,-9,17
3360,-4,-13,37,-7,-6,26,-9,17
3361,-3,-13,36,-7,-6,26,-9,19
3362,-2,-12,36,-6,-6,26,-9,21
3363,-1,-11,37,-5,-5,26,-8,23
3364,0,-12,38,-5,-3,25,-7,24
3365,1,-13,40,-5,1,24,-6,24
3366,2,-15,41,-5,4,23,-6,24
3367,3,-16,43,-5,6,21,-6,23
3368,3,-17,44,-5,8,19,-6,22
3369,4,-17,42,-5,9,16,-6,22
3370,4,-17,38,-5,10,14,-5,22
3371,4,-16,32,-4,10,12,-4,23
3372,5,-14,26,-3,11,10,-3,25
3373,5,-12,22,-3,12,9,-2,27
3374,5,-12,23,-3,12,10,-3,28
3375,4,-13,27,-4,11,14,-3,27
3376,4,-15,33,-4,10,19,-4,26
3377,4,-15,36,-5,10,22,-3,26
3378,5,-13,36,-4,10,24,-2,27
3379,6,-10,35,-4,11,24,-1,30
3380,8,-6,35,-3,13,24,1,33
3381,10,-4,36,-2,15,21,3,36
3382,11,-4,37,-1,18,18,4,37
3383,13,-5,38,0,21,14,4,39
3384,14,-6,37,1,23,12,5,41
3385,16,-6,37,2,24,12,6,43
3386,17,-7,37,3,24,14,7,45
3387,17,-7,39,3,24,17,9,46
3388,16,-7,41,4,24,18,10,47
3389,16,-6,42,5,24,18,11,47
3390,16,-5,43,6,25,16,12,47
3391,16,-4,43,6,25,14,13,48
3392,17,-4,43,6,25,13,14,48
3393,18,-3,42,5,24,15,15,47
3394,17,-3,40,5,22,17,16,45
3395,16,-2,36,4,21,20,16,44
3396,16,0,31,3,21,21,16,43
3397,15,2,26,3,22,22,16,43
3398,15,3,25,3,23,24,16,43
3399,15,3,25,3,25,26,14,43
3400,14,3,28,2,25,30,12,43
3401,12,1,32,2,25,32,10,42
3402,11,-2,35,1,25,30,7,42
3403,9,-4,35,0,25,25,5,43
3404,10,-5,35,0,27,19,4,45
3405,11,-5,34,0,28,15,5,47
3406,13,-5,34,0,29,13,6,49
3407,15,-6,35,0,29,13,8,50
3408,16,-8,38,1,28,16,10,50
3409,16,-9,42,1,27,18,11,50
3410,15,-10,45,1,26,18,12,50
3411,14,-9,46,1,26,18,13,51
3412,13,-8,47,1,27,18,14,52
3413,12,-6,47,1,28,19,14,54
3414,11,-4,46,1,30,19,14,55
3415,11,-4,47,1,33,19,14,56
3416,11,-4,48,1,35,20,14,56
3417,11,-3,48,0,38,21,13,57
3418,12,-1,45,-1,40,23,13,60
3419,13,3,41,-1,41,25,13,63
3420,14,5,39,-1,43,27,13,66
3421,14,5,38,-1,43,27,13,68
3422,15,5,39,-1,44,27,13,68
3423,15,4,40,0,43,28,13,66
3424,14,3,42,1,41,29,14,63
3425,14,2,42,2,40,28,14,60
3426,14,3,39,2,39,26,15,59
3427,15,3,37,3,39,24,15,58
3428,15,3,37,3,38,25,16,57
3429,16,3,40,4,38,27,16,56
3430,15,4,43,4,38,29,15,56
3431,15,5,44,5,39,30,15,57
3432,15,7,46,6,40,30,15,58
3433,14,7,46,6,42,28,16,58
3434,14,6,46,5,43,26,16,58
3435,14,6,44,4,45,25,15,58
3436,14,7,41,3,45,26,15,58
3437,13,9,38,2,45,27,14,59
3438,12,9,36,1,44,27,12,58
3439,11,8,36,-1,43,28,11,57
3440,11,7,36,-1,42,29,10,55
3441,11,7,34,-2,40,31,11,54
3442,11,8,32,-2,37,35,12,53
3443,12,9,30,-2,35,37,14,54
3444,12,10,28,-3,33,37,15,54
3445,12,10,27,-3,33,36,15,54
3446,12,8,28,-4,33,34,14,53
3447,11,5,29,-5,35,30,13,52
3448,11,4,28,-5,37,26,13,52
3449,11,3,28,-4,39,24,12,53
3450,11,3,27,-4,41,23,12,54
3451,11,4,27,-5,43,21,11,55
3452,10,6,27,-5,45,19,10,58
3453,10,9,26,-6,46,18,9,60
3454,11,11,25,-7,46,19,8,62
3455,11,12,27,-8,43,21,7,62
3456,12,11,31,-9,40,25,6,60
3457,12,9,34,-9,36,28,6,56
3458,12,8,36,-9,34,30,6,53
3459,12,8,34,-9,32,30,7,51
3460,12,9,29,-8,32,27,8,51
3461,12,9,25,-8,33,25,10,51
3462,13,9,23,-8,33,24,11,50
3463,15,8,23,-7,33,23,12,50
3464,16,8,23,-7,34,22,13,51
3465,17,9,23,-6,35,21,14,54
3466,17,10,24,-6,36,20,14,56
3467,16,10,25,-6,37,20,14,57
3468,14,10,26,-7,37,18,13,58
3469,14,9,27,-7,37,17,13,58
3470,13,8,27,-6,38,15,14,58
3471,14,8,27,-5,38,14,14,59
3472,15,9,26,-4,38,12,15,61
3473,16,10,24,-4,39,12,16,62
3474,16,12,23,-3,39,14,16,63
3475,15,14,23,-4,39,16,15,63
3476,14,16,24,-4,41,17,13,64
3477,13,17,25,-5,42,16,12,64
3478,11,17,27,-6,44,17,11,64
3479,9,15,32,-8,45,18,8,62
3480,7,13,36,-10,45,18,6,60
3481,6,12,37,-12,45,17,3,58
3482,5,12,38,-13,45,17,2,56
3483,5,11,38,-14,45,18,1,54
3484,5,11,38,-14,43,21,1,54
3485,6,12,36,-15,42,24,2,53
3486,7,12,33,-15,40,27,3,53
3487,8,11,31,-15,38,27,4,53
3488,9,11,28,-15,37,27,4,52
3489,9,10,27,-16,35,26,4,51
3490,9,8,27,-16,34,26,4,50
3491,9,7,27,-17,32,28,3,49
3492,9,7,26,-17,32,28,3,48
3493,10,7,24,-16,32,25,4,48
3494,10,7,22,-15,34,20,5,48
3495,11,7,21,-13,35,17,7,48
3496,12,6,22,-11,36,15,8,46
3497,13,5,23,-10,37,14,8,45
3498,14,6,22,-10,38,13,8,46
3499,15,9,19,-11,41,12,7,48
3500,15,11,17,-12,43,12,5,50
3501,13,13,17,-14,45,13,3,51
3502,11,13,20,-16,45,17,1,51
3503,8,12,26,-17,44,23,-1,48
3504,6,10,32,-17,43,27,-2,45
3505,4,9,33,-17,43,26,-2,43
3506,4,9,29,-16,44,21,-2,43
3507,4,10,23,-14,44,15,0,46
3508,6,10,16,-12,43,12,2,47
3509,7,10,13,-11,40,13,5,47
3510,8,8,15,-11,35,18,7,45
3511,10,6,19,-10,30,23,9,41
3512,11,5,22,-9,28,21,10,39
3513,12,5,22,-7,28,16,11,39
3514,13,5,21,-7,29,8,12,40
3515,15,5,18,-6,30,2,13,42
3516,17,5,14,-7,32,-2,13,43
3517,18,5,12,-8,32,1,14,42
3518,18,4,12,-8,32,6,16,41
3519,18,5,13,-8,33,11,17,40
3520,18,7,13,-8,36,14,18,42
3521,17,10,14,-8,39,14,18,45
3522,14,13,16,-8,42,15,17,47
3523,11,15,19,-9,45,15,15,50
3524,8,18,21,-11,49,13,11,51
3525,5,19,23,-12,52,13,8,53
3526,2,20,25,-14,53,13,4,53
3527,0,19,27,-16,53,14,2,51
3528,-2,18,29,-17,52,14,0,50
3529,-2,17,29,-17,50,13,-1,49
3530,-1,17,27,-16,49,12,-1,48
3531,0,16,26,-15,48,12,0,48
3532,1,14,26,-14,46,13,0,47
3533,2,13,26,-13,44,16,1,46
3534,3,13,24,-13,42,18,2,46
3535,4,15,20,-13,42,17,4,47
3536,5,18,15,-12,42,12,6,49
3537,6,20,11,-12,43,9,8,49
3538,7,20,11,-11,42,8,10,48
3539,7,17,16,-11,40,11,10,44
3540,7,13,23,-10,36,16,10,39
3541,7,9,26,-10,33,20,10,34
3542,7,7,24,-9,30,20,10,31
3543,7,5,21,-9,29,18,11,28
3544,7,3,19,-9,28,16,11,26
3545,5,0,19,-9,27,14,11,23
3546,3,-2,22,-10,27,14,10,20
3547,1,-3,25,-11,27,14,8,18
3548,-2,-3,26,-12,27,16,6,17
3549,-5,0,24,-13,27,18,5,18
3550,-6,5,20,-14,27,20,3,21
3551,-7,10,16,-15,28,20,2,24
3552,-6,15,12,-14,28,20,1,27
3553,-5,19,9,-14,29,19,1,31
3554,-4,21,7,-13,29,16,2,34
3555,-3,22,8,-11,29,14,3,36
3556,-3,21,9,-10,29,12,4,37
3557,-2,20,10,-8,29,11,5,39
3558,-1,19,11,-6,29,10,6,41
3559,0,18,10,-5,29,9,7,42
3560,1,16,9,-4,29,8,7,42
3561,3,14,7,-4,28,8,7,41
3562,4,13,5,-5,28,9,8,39
3563,5,13,5,-5,28,9,7,38
3564,5,13,7,-6,29,7,7,37
3565,4,12,10,-6,31,5,7,35
3566,3,11,13,-7,32,4,6,34
3567,2,10,16,-9,32,4,5,32
3568,1,9,17,-11,32,4,4,30
3569,-1,8,19,-12,31,6,3,26
3570,-3,7,19,-13,28,8,3,23
3571,-4,8,18,-14,26,8,2,20
3572,-5,9,16,-14,25,7,3,19
3573,-6,12,12,-13,25,4,4,18
3574,-6,15,8,-11,25,2,5,19
3575,-6,18,6,-9,26,0,6,20
3576,-6,19,5,-7,26,0,6,21
3577,-5,18,7,-6,27,0,6,22
3578,-4,17,7,-6,29,-2,7,23
3579,-2,16,5,-5,31,-4,8,26
3580,1,17,1,-5,32,-6,9,28
3581,3,17,-2,-5,32,-9,10,30
3582,4,16,-2,-5,33,-11,11,30
3583,5,16,2,-6,33,-11,12,30
3584,5,16,6,-6,32,-10,12,28
3585,4,16,8,-7,32,-10,12,26
3586,3,18,9,-8,32,-8,12,25
3587,3,19,9,-8,32,-5,12,24
3588,3,20,10,-9,32,-2,12,23
3589,4,21,11,-10,32,1,12,22
3590,6,22,11,-10,33,3,12,23
3591,7,25,10,-10,34,4,12,24
3592,8,27,8,-10,34,4,11,25
3593,7,27,7,-9,33,3,11,25
3594,6,26,8,-9,32,2,10,23
3595,4,23,9,-9,32,2,10,22
3596,2,20,10,-9,31,1,9,20
3597,1,19,8,-9,32,1,9,20
3598,1,18,6,-10,32,-1,9,21
3599,0,18,7,-10,32,-1,9,20
3600,0,16,11,-11,32,1,9,18
3601,1,13,14,-11,31,0,10,16
3602,2,12,14,-11,31,-3,10,16
3603,2,12,10,-9,29,-6,10,16
3604,3,12,6,-8,27,-8,10,17
3605,3,13,0,-7,25,-10,10,17
3606,4,14,-5,-7,23,-10,9,16
3607,4,14,-7,-8,19,-7,9,14
3608,4,15,-8,-9,16,-3,8,11
3609,4,15,-8,-10,14,2,7,9
3610,4,16,-9,-11,12,4,6,8
3611,4,15,-8,-11,11,6,5,6
3612,3,13,-5,-12,10,7,4,3
3613,2,10,-2,-12,9,7,4,0
3614,2,7,1,-12,8,6,4,-2
3615,2,4,3,-12,8,3,5,-4
3616,2,1,6,-11,10,0,7,-5
3617,3,-1,9,-11,13,-2,8,-4
3618,4,-1,11,-11,17,-2,9,-3
3619,5,1,11,-10,21,-2,10,1
3620,5,5,9,-9,24,-2,11,6
3621,6,9,5,-8,27,-3,12,10
3622,7,13,3,-8,29,-5,12,14
3623,8,15,2,-7,30,-6,12,18
3624,9,16,3,-7,30,-8,12,20
3625,10,16,4,-6,28,-9,12,22
3626,10,16,4,-7,25,-8,11,22
3627,9,15,2,-8,21,-5,10,21
3628,8,14,-1,-9,18,-3,9,19
3629,6,12,-4,-10,14,-2,7,16
3630,4,11,-5,-11,12,-1,6,11
3631,2,9,-3,-12,10,0,5,6
3632,1,7,0,-12,9,1,5,1
3633,0,6,3,-11,8,3,5,-2
3634,0,7,4,-11,9,6,5,-3
3635,-1,9,4,-10,11,7,5,-2
3636,-1,12,4,-10,13,7,5,0
3637,-2,14,5,-10,17,5,6,2
3638,-4,14,6,-9,20,3,6,3
3639,-5,13,8,-9,22,1,6,3
3640,-5,12,8,-8,24,-1,6,4
3641,-5,11,7,-8,26,-3,6,5
3642,-4,10,5,-8,26,-5,5,7
3643,-3,10,4,-8,26,-6,5,8
3644,-2,8,4,-8,24,-5,5,8
3645,-1,5,5,-7,21,-2,6,6
3646,0,3,8,-7,18,1,6,4
3647,1,1,9,-6,17,2,6,4
3648,1,2,9,-6,17,1,6,6
3649,0,4,8,-5,18,-1,6,8
3650,-1,6,8,-5,18,-1,6,10
3651,-2,9,8,-4,19,-1,5,11
3652,-2,12,8,-4,19,-1,5,12
3653,-2,14,9,-4,19,0,4,12
3654,-3,16,11,-5,20,2,3,11
3655,-4,17,11,-6,21,3,2,11
3656,-5,19,9,-7,23,4,1,12
3657,-6,21,8,-8,25,4,0,13
3658,-7,21,6,-8,25,3,-1,13
3659,-7,19,6,-8,25,0,-2,12
3660,-8,16,6,-8,24,-4,-4,10
3661,-8,12,6,-8,22,-8,-5,7
3662,-8,9,5,-8,20,-11,-5,4
3663,-7,7,5,-8,18,-13,-5,2
3664,-7,6,3,-7,17,-14,-4,1
3665,-7,7,1,-7,16,-13,-3,1
3666,-6,7,0,-7,14,-10,-2,1
3667,-6,7,-2,-6,11,-8,-1,1
3668,-5,7,-2,-6,9,-6,-1,1
3669,-5,7,-1,-5,7,-6,0,0
3670,-4,6,2,-5,6,-6,0,-2
3671,-5,4,5,-5,4,-7,0,-4
3672,-6,1,8,-6,3,-8,-1,-6
3673,-7,-1,12,-6,2,-8,-2,-8
3674,-9,-4,14,-7,1,-8,-4,-10
3675,-11,-5,14,-7,-1,-8,-5,-11
3676,-12,-5,13,-7,-1,-7,-7,-11
3677,-14,-4,11,-7,-2,-4,-8,-11
3678,-15,-2,9,-7,-2,-2,-10,-10
3679,-15,0,8,-8,-2,-1,-11,-9
3680,-15,2,9,-8,0,-1,-12,-8
3681,-15,2,10,-8,1,-3,-12,-7
3682,-14,2,10,-9,2,-5,-13,-7
3683,-14,1,10,-9,1,-4,-13,-8
3684,-13,-2,11,-10,-2,1,-12,-11
3685,-13,-5,13,-10,-5,6,-12,-13
3686,-12,-7,14,-10,-8,10,-12,-16
3687,-11,-9,15,-10,-10,10,-12,-16
3688,-11,-11,15,-10,-11,8,-12,-16
3689,-11,-11,14,-10,-10,5,-13,-13
3690,-11,-11,13,-10,-8,2,-13,-10
3691,-11,-11,13,-10,-6,-1,-12,-7
3692,-11,-11,16,-9,-3,-3,-12,-4
3693,-10,-11,19,-8,0,-5,-11,-2
3694,-10,-12,22,-6,1,-5,-9,-1
3695,-9,-14,24,-6,0,-4,-8,-2
3696,-8,-15,24,-5,-2,-2,-7,-4
3697,-9,-16,24,-4,-4,1,-7,-6
3698,-9,-15,24,-4,-6,3,-7,-6
3699,-10,-12,24,-3,-6,3,-8,-5
3700,-10,-8,24,-3,-5,0,-8,-1
3701,-10,-5,25,-2,-3,-4,-8,3
3702,-9,-3,25,-2,-1,-6,-8,5
3703,-8,-3,27,-2,0,-6,-8,5
3704,-7,-4,27,-2,-1,-4,-7,5
3705,-5,-4,26,-2,-1,0,-7,6
3706,-3,-5,25,-2,-2,4,-7,7
3707,-2,-4,24,-1,-3,7,-7,9
3708,0,-4,23,-1,-2,7,-6,11
3709,1,-5,23,-1,-3,8,-6,12
3710,2,-6,24,0,-3,8,-5,11
3711,2,-8,26,0,-3,7,-4,9
3712,2,-10,29,1,-4,8,-4,8
3713,1,-11,32,1,-5,9,-3,8
3714,0,-11,34,1,-6,11,-3,8
3715,0,-9,35,2,-5,11,-2,10
3716,2,-7,34,4,-4,10,-1,13
3717,4,-6,32,6,-2,8,1,16
3718,5,-5,28,7,-2,6,2,17
3719,6,-5,24,8,-2,4,3,18
3720,6,-6,23,7,-3,4,3,18
3721,6,-6,23,7,-4,5,3,18
3722,6,-5,25,6,-4,6,2,19
3723,6,-3,26,6,-3,6,2,21
3724,7,0,27,6,-1,5,2,25
3725,8,2,27,6,3,5,2,30
3726,8,3,26,6,5,7,2,32
3727,8,2,25,6,6,9,3,34
3728,8,1,25,6,7,10,3,34
3729,8,-2,26,6,7,9,4,33
3730,8,-5,29,6,6,8,6,31
3731,8,-7,33,6,6,8,6,30
3732,7,-9,36,5,6,9,6,29
3733,6,-9,39,4,7,12,5,29
3734,5,-9,41,3,7,15,4,30
3735,5,-7,42,3,7,17,3,32
3736,4,-5,42,3,8,18,3,33
3737,4,-3,42,3,9,17,2,35
3738,4,-3,42,4,9,15,2,36
3739,5,-3,44,4,10,13,1,36
3740,6,-4,46,4,10,12,1,37
3741,7,-4,45,4,9,11,1,39
3742,8,-3,43,5,8,12,1,42
3743,9,-1,42,5,8,15,1,45
3744,10,0,42,5,7,18,0,47
3745,10,1,43,4,8,20,0,49
3746,9,0,46,4,9,21,0,49
3747,8,-1,49,3,9,21,-1,49
3748,6,-1,51,3,10,18,-1,49
3749,5,-1,51,3,10,15,-2,50
3750,5,-2,52,3,9,14,-2,49
3751,5,-4,53,3,7,16,-2,47
3752,6,-6,56,4,5,17,-1,45
3753,7,-9,60,4,3,17,-1,41
3754,8,-11,61,4,2,17,-1,39
3755,8,-12,61,3,2,17,-2,39
3756,8,-12,60,2,3,18,-3,39
3757,8,-13,61,1,4,21,-3,39
3758,8,-12,61,0,5,23,-4,40
3759,8,-10,59,0,5,24,-4,42
3760,8,-7,56,0,5,24,-3,44
3761,8,-5,54,1,5,22,-3,46
3762,9,-4,52,1,5,22,-3,47
3763,9,-3,51,1,5,24,-2,47
3764,10,-4,53,1,5,27,-2,48
3765,10,-5,55,1,7,29,-2,50
3766,11,-5,56,1,9,28,-2,54
3767,12,-5,56,1,12,25,-2,59
3768,14,-5,54,2,15,22,-2,64
3769,16,-6,55,3,16,21,-1,66
3770,18,-8,58,3,14,23,-1,65
3771,19,-11,64,3,12,25,-1,63
3772,20,-12,69,3,11,25,0,61
3773,19,-12,72,3,11,24,0,59
3774,19,-10,71,3,13,20,1,60
3775,19,-6,67,3,16,16,1,61
3776,19,-2,61,2,20,12,3,64
3777,20,3,55,2,23,10,4,66
3778,20,5,54,1,25,12,4,67
3779,20,7,55,1,26,15,4,67
3780,19,8,57,1,27,17,4,68
3781,19,9,58,1,30,18,4,69
3782,19,10,58,2,31,18,4,71
3783,20,11,57,2,33,17,5,72
3784,20,11,58,2,33,17,6,73
3785,21,10,60,2,33,17,6,73
3786,22,9,63,2,33,18,5,72
3787,22,7,65,2,32,19,5,71
3788,21,7,66,2,31,20,4,70
3789,21,8,65,3,30,21,4,71
3790,21,10,63,3,30,22,4,72
3791,22,12,60,3,30,23,5,74
3792,23,14,57,3,31,22,6,76
3793,24,16,54,2,32,22,7,77
3794,24,17,53,0,32,24,8,78
3795,24,16,54,-1,32,25,8,77
3796,24,15,57,-1,32,26,9,75
3797,23,13,60,-1,32,26,8,74
3798,22,13,58,-1,34,24,8,75
3799,22,14,54,-1,36,20,8,76
3800,21,15,50,-1,37,17,7,77
3801,21,16,47,-1,37,16,7,77
3802,20,16,45,-1,36,18,7,77
3803,19,17,44,-1,34,18,7,76
3804,19,17,44,-1,34,17,6,75
3805,18,16,45,-1,33,16,5,73
3806,17,13,45,-1,34,15,4,71
3807,16,11,48,-2,33,17,2,69
3808,14,7,52,-3,32,19,2,65
3809,13,4,57,-3,32,21,2,62
3810,13,5,56,-3,32,21,3,62
3811,14,7,52,-4,32,20,5,64
3812,15,10,47,-4,31,20,6,67
3813,16,13,44,-4,30,20,6,69
3814,16,13,42,-5,30,17,7,70
3815,17,12,43,-6,30,13,7,69
3816,17,9,44,-7,31,10,6,67
3817,17,8,45,-8,31,7,6,65
3818,17,8,45,-8,31,6,6,64
3819,17,11,44,-9,30,9,7,65
3820,18,16,43,-9,29,13,7,66
3821,18,21,42,-8,28,17,7,68
3822,18,24,43,-7,29,19,8,69
3823,18,27,46,-7,30,20,8,70
3824,17,28,47,-6,33,20,7,71
3825,15,30,48,-6,36,19,6,74
3826,13,32,46,-7,41,15,5,77
3827,11,36,43,-7,46,10,5,82
3828,10,38,42,-7,51,7,5,85
3829,9,38,44,-7,53,7,5,85
3830,8,37,49,-7,53,11,6,84
3831,10,34,54,-7,51,17,7,81
3832,12,33,56,-7,49,19,9,78
3833,14,33,53,-7,50,17,10,78
3834,17,34,47,-6,52,12,11,80
3835,18,34,44,-6,54,8,12,80
3836,19,33,44,-5,56,7,12,80
3837,20,33,46,-5,55,8,11,78
3838,21,33,48,-5,53,12,12,76
3839,22,33,49,-5,51,15,13,74
3840,23,33,50,-4,49,18,15,72
3841,23,33,50,-3,48,20,17,71
3842,24,34,51,-1,48,22,20,71
3843,26,37,51,0,49,22,22,73
3844,28,41,49,1,51,22,24,78
3845,29,46,46,1,54,22,25,82
3846,29,50,42,1,57,20,25,87
3847,30,53,40,1,60,17,25,91
3848,30,53,41,1,63,16,24,92
3849,31,52,45,2,64,16,23,91
3850,32,52,49,2,66,17,22,90
3851,34,51,52,3,66,19,21,87
3852,35,51,54,2,65,22,21,85
3853,35,50,55,2,65,25,21,82
3854,36,50,54,1,65,27,21,80
3855,36,52,52,1,65,27,22,80
3856,36,52,49,0,64,27,23,80
3857,36,51,50,0,62,28,23,78
3858,35,47,53,0,60,32,23,74
3859,34,43,58,0,57,34,22,70
3860,33,40,62,0,56,33,21,68
3861,33,41,59,1,57,30,21,69
3862,33,45,53,0,58,27,21,71
3863,32,47,47,-1,56,27,21,72
3864,31,48,45,-2,53,30,21,69
3865,30,46,46,-4,49,33,20,65
3866,27,43,50,-5,46,35,19,61
3867,25,42,54,-5,45,35,17,59
3868,22,42,54,-5,45,32,16,60
3869,19,46,51,-6,46,27,14,63
3870,16,48,49,-7,46,24,13,63
3871,13,47,50,-9,43,24,10,61
3872,12,44,54,-11,40,26,8,56
3873,12,40,56,-13,39,25,8,53
3874,13,38,55,-14,41,24,8,52
3875,14,38,51,-14,43,21,9,54
3876,16,38,46,-14,46,19,10,56
3877,17,39,43,-14,46,18,10,57
3878,17,37,43,-15,44,20,10,56
3879,16,34,46,-16,40,21,9,53
3880,16,31,48,-17,38,21,9,49
3881,16,28,48,-16,37,20,9,47
3882,16,27,46,-16,37,20,10,45
3883,16,27,42,-14,38,21,10,44
3884,16,29,38,-13,38,21,10,45
3885,16,32,33,-12,38,18,10,47
3886,15,36,28,-12,39,14,9,51
3887,14,40,26,-12,41,8,8,55
3888,13,42,26,-13,44,5,7,59
3889,11,44,28,-13,44,7,7,61
3890,9,43,31,-14,41,12,6,60
3891,8,41,33,-15,37,17,6,57
3892,7,37,34,-16,34,19,5,53
3893,6,35,34,-17,35,17,4,50
3894,5,33,35,-17,37,16,2,47
3895,4,32,37,-17,37,15,1,44
3896,3,33,39,-17,35,14,-1,41
3897,3,33,38,-17,32,11,-1,37
3898,3,34,36,-18,27,8,0,34
3899,4,32,34,-19,24,6,1,31
3900,5,30,35,-20,22,6,2,27
3901,6,27,34,-20,23,8,3,24
3902,7,26,31,-20,23,10,3,22
3903,8,27,25,-19,23,11,4,21
3904,9,29,19,-19,22,10,5,21
3905,10,29,14,-18,20,8,5,20
3906,10,28,12,-17,19,7,5,19
3907,10,28,13,-16,18,7,5,18
3908,9,28,17,-16,18,8,4,17
3909,7,28,23,-15,19,10,4,17
3910,4,28,30,-15,20,12,3,16
3911,1,28,35,-16,21,15,1,16
3912,-1,30,39,-17,21,18,0,15
3913,-2,31,40,-19,22,21,-1,16
3914,-2,33,38,-19,21,20,-2,18
3915,1,33,33,-19,20,16,-2,18
3916,5,31,26,-18,19,12,-1,18
3917,7,27,20,-17,17,7,-1,17
3918,8,22,14,-16,16,3,0,15
3919,7,20,9,-15,17,0,0,14
3920,5,19,4,-15,19,-2,0,15
3921,3,22,2,-14,24,-2,-1,17
3922,0,26,3,-14,29,1,-2,19
3923,0,29,5,-14,32,6,-3,19
3924,3,30,7,-16,33,11,-3,19
3925,7,31,6,-17,33,12,-2,19
3926,9,37,3,-17,33,8,0,22
3927,11,44,0,-16,34,4,1,26
3928,11,49,-2,-15,35,0,2,28
3929,11,48,-3,-15,35,-2,2,27
3930,11,45,-4,-16,35,-2,2,25
3931,11,40,-4,-17,33,1,1,21
3932,12,35,-3,-19,29,5,1,17
3933,11,33,1,-18,27,10,0,14
3934,8,36,10,-14,31,16,0,14
3935,4,41,20,-10,41,22,-1,17
3936,1,45,24,-9,48,23,-2,19
3937,1,44,23,-9,48,18,-2,17
3938,3,40,16,-9,40,11,-2,13
3939,5,32,5,-11,28,4,-1,7
3940,7,23,-7,-14,16,-2,-1,1
3941,8,17,-16,-15,10,-5,-1,-3
3942,8,15,-19,-13,13,-6,0,-4
3943,7,17,-19,-12,24,-7,0,-1
3944,5,25,-17,-10,35,-9,0,4
3945,3,37,-13,-8,42,-10,0,8
3946,1,43,-9,-6,46,-9,0,8
3947,0,42,-5,-5,42,-5,-1,5
3948,-2,36,-5,-5,34,-3,-2,0
3949,-3,29,-7,-7,23,-2,-3,-6
3950,-3,19,-10,-10,11,-3,-4,-13
3951,-3,9,-10,-14,1,-2,-5,-19
3952,-3,4,-9,-18,-4,1,-6,-22
3953,-3,4,-6,-20,-1,6,-6,-21
3954,-3,10,-2,-16,12,12,-4,-17
3955,-3,17,3,-8,27,16,-3,-10
3956,-4,22,5,-4,35,15,-2,-6
3957,-4,21,2,-4,33,9,-2,-6
3958,-4,17,-4,-6,26,0,-2,-8
3959,-3,13,-9,-8,18,-7,-3,-10
3960,-2,11,-14,-11,12,-10,-3,-12
3961,-2,13,-17,-9,10,-11,-3,-12
3962,-2,21,-18,-3,13,-9,-2,-11
3963,-4,24,-17,2,13,-7,-1,-11
3964,-4,21,-18,4,8,-8,-1,-15
3965,-4,16,-20,3,0,-10,-2,-21
3966,-2,12,-21,4,-1,-12,-1,-24
3967,-1,14,-20,6,9,-10,-1,-22
3968,-2,18,-20,4,21,-7,-2,-19
3969,-3,20,-21,-3,23,-7,-4,-19
3970,-3,18,-24,-9,16,-8,-5,-22
3971,-1,13,-25,-11,6,-9,-5,-26
3972,1,8,-23,-10,-4,-9,-4,-31
3973,1,3,-18,-8,-11,-9,-4,-35
3974,-1,0,-14,-6,-11,-10,-4,-37
3975,-4,2,-16,-3,-5,-12,-5,-35
3976,-7,6,-22,-2,5,-14,-5,-32
3977,-7,8,-31,-2,13,-17,-5,-27
3978,-5,10,-38,-2,18,-18,-4,-24
3979,-3,11,-39,-4,19,-16,-4,-23
3980,-3,10,-35,-8,14,-13,-5,-25
3981,-5,7,-31,-13,3,-12,-6,-31
3982,-6,5,-31,-18,-9,-14,-7,-35
3983,-5,6,-34,-17,-17,-18,-6,-36
3984,-3,10,-38,-9,-16,-18,-3,-33
3985,0,17,-38,-1,-7,-13,0,-27
3986,2,22,-38,2,1,-9,2,-23
3987,2,21,-38,1,3,-11,1,-24
3988,0,16,-39,-1,-2,-16,-1,-28
3989,0,10,-41,-4,-8,-23,-3,-34
3990,-1,6,-43,-6,-11,-28,-4,-37
3991,-2,4,-44,-10,-13,-31,-6,-40
3992,-5,3,-43,-14,-14,-29,-8,-41
3993,-7,4,-39,-16,-11,-25,-9,-41
3994,-8,1,-35,-16,-8,-22,-9,-42
3995,-8,-5,-32,-16,-7,-21,-10,-45
3996,-8,-10,-31,-15,-10,-22,-10,-47
3997,-7,-13,-32,-14,-13,-23,-9,-48
3998,-5,-13,-35,-14,-16,-22,-8,-47
3999,-3,-11,-40,-13,-15,-22,-6,-43
4000,0,-8,-46,-11,-13,-23,-4,-40
4001,2,-8,-49,-8,-12,-26,-2,-37
4002,3,-9,-49,-5,-11,-28,0,-36
4003,2,-9,-45,-4,-11,-29,1,-36
4004,1,-9,-40,-4,-12,-28,1,-38
4005,-1,-11,-38,-4,-13,-29,1,-40
4006,-2,-12,-39,-4,-14,-31,1,-41
4007,-3,-12,-42,-4,-13,-33,1,-43
4008,-5,-11,-44,-6,-13,-34,0,-45
4009,-6,-9,-45,-7,-13,-34,-2,-47
4010,-7,-8,-42,-8,-12,-33,-3,-50
4011,-8,-8,-38,-8,-11,-28,-5,-53
4012,-8,-9,-33,-7,-10,-23,-6,-56
4013,-8,-11,-28,-8,-10,-18,-7,-61
4014,-7,-14,-24,-9,-11,-15,-7,-64
4015,-7,-15,-22,-10,-12,-12,-8,-66
4016,-7,-15,-22,-10,-14,-9,-8,-66
4017,-7,-16,-24,-9,-16,-8,-8,-66
4018,-6,-15,-29,-7,-17,-11,-8,-63
4019,-5,-13,-36,-5,-17,-15,-8,-59
4020,-4,-12,-41,-4,-15,-18,-7,-55
4021,-3,-11,-42,-4,-13,-20,-7,-51
4022,-3,-11,-39,-2,-10,-21,-6,-47
4023,-3,-11,-32,-1,-8,-19,-4,-43
4024,-3,-11,-25,0,-7,-17,-2,-42
4025,-4,-11,-20,-1,-9,-14,-1,-42
4026,-5,-10,-19,-1,-11,-13,-1,-43
4027,-7,-8,-20,-2,-13,-10,-1,-45
4028,-8,-7,-21,-4,-14,-7,-2,-47
4029,-9,-5,-22,-6,-15,-5,-4,-51
4030,-10,-3,-24,-7,-15,-5,-5,-53
4031,-11,-1,-26,-8,-13,-8,-7,-55
4032,-12,0,-28,-9,-12,-12,-8,-57
4033,-12,-2,-30,-9,-12,-14,-8,-61
4034,-12,-7,-30,-9,-16,-12,-9,-66
4035,-11,-12,-29,-9,-20,-10,-9,-71
4036,-10,-16,-28,-9,-23,-8,-10,-75
4037,-10,-18,-28,-8,-23,-6,-9,-76
4038,-9,-17,-28,-6,-21,-6,-9,-74
4039,-9,-14,-30,-5,-18,-6,-9,-70
4040,-8,-10,-33,-4,-16,-6,-8,-65
4041,-8,-5,-36,-3,-13,-7,-8,-58
4042,-8,2,-38,-2,-12,-9,-7,-52
4043,-8,7,-41,-1,-11,-11,-7,-47
4044,-8,11,-43,0,-11,-14,-7,-43
4045,-8,12,-42,0,-13,-15,-7,-43
4046,-8,11,-39,-1,-15,-15,-7,-44
4047,-6,9,-37,-1,-17,-15,-6,-46
4048,-5,6,-36,0,-16,-17,-5,-48
4049,-5,5,-37,0,-13,-20,-4,-49
4050,-4,3,-39,0,-10,-22,-3,-50
4051,-5,1,-41,-1,-7,-23,-3,-51
4052,-5,-2,-40,-1,-5,-22,-3,-54
4053,-6,-5,-38,-1,-5,-20,-3,-57
4054,-8,-7,-35,-1,-4,-18,-5,-60
4055,-9,-8,-32,-2,-4,-16,-6,-61
4056,-10,-9,-28,-3,-5,-13,-7,-63
4057,-10,-9,-26,-4,-8,-10,-8,-63
4058,-10,-6,-25,-5,-11,-8,-8,-63
4059,-10,-4,-26,-5,-13,-7,-7,-62
4060,-10,-2,-27,-5,-16,-6,-7,-61
4061,-9,-2,-29,-4,-18,-7,-6,-60
4062,-9,-2,-31,-4,-20,-7,-5,-60
4063,-9,-1,-33,-3,-21,-6,-4,-60
4064,-9,-1,-36,-3,-22,-5,-3,-58
4065,-8,2,-41,-2,-21,-6,-2,-55
4066,-7,5,-46,-1,-18,-9,-1,-52
4067,-5,8,-49,0,-16,-13,0,-50
4068,-4,8,-47,1,-13,-15,0,-48
4069,-3,6,-45,1,-12,-16,0,-47
4070,-2,4,-45,1,-11,-15,0,-47
4071,-1,1,-47,-1,-12,-14,-2,-47
4072,-1,-2,-53,-3,-13,-15,-3,-48
4073,-1,-6,-60,-4,-16,-19,-4,-51
4074,-2,-10,-63,-5,-19,-23,-5,-56
4075,-3,-15,-59,-5,-22,-24,-6,-62
4076,-4,-20,-51,-6,-25,-22,-7,-69
4077,-6,-23,-44,-6,-26,-20,-7,-73
4078,-8,-23,-40,-7,-27,-18,-8,-76
4079,-9,-22,-38,-8,-29,-17,-9,-78
4080,-11,-20,-37,-9,-31,-16,-11,-80
4081,-13,-18,-37,-10,-33,-14,-12,-80
4082,-13,-16,-37,-8,-34,-12,-12,-80
4083,-12,-15,-36,-6,-33,-10,-11,-79
4084,-10,-15,-37,-4,-32,-9,-10,-78
4085,-7,-15,-39,-2,-31,-9,-8,-78
4086,-5,-16,-40,-1,-32,-8,-6,-79
4087,-5,-17,-40,-1,-33,-8,-6,-80
4088,-5,-18,-40,-2,-33,-8,-6,-80
4089,-5,-18,-40,-3,-32,-8,-7,-79
4090,-6,-17,-40,-3,-30,-10,-7,-77
4091,-5,-15,-42,-3,-30,-12,-7,-75
4092,-5,-13,-45,-4,-33,-13,-7,-73
4093,-4,-11,-49,-4,-38,-11,-7,-71
4094,-4,-9,-50,-5,-42,-8,-7,-69
4095,-5,-7,-49,-5,-43,-7,-7,-67
4096,-7,-7,-46,-4,-38,-8,-7,-65
4097,-8,-6,-43,-2,-31,-11,-8,-63
4098,-11,-8,-41,-3,-24,-14,-10,-62
4099,-12,-11,-39,-4,-22,-15,-12,-63
4100,-13,-15,-39,-4,-23,-14,-14,-65
4101,-14,-17,-39,-3,-26,-12,-15,-67
4102,-14,-16,-37,-4,-29,-10,-15,-67
4103,-15,-15,-33,-5,-31,-9,-15,-68
4104,-15,-16,-29,-5,-32,-9,-14,-69
4105,-15,-17,-27,-4,-31,-9,-13,-70
4106,-15,-18,-27,-2,-29,-9,-12,-70
4107,-15,-18,-30,2,-26,-9,-10,-70
4108,-14,-18,-32,4,-25,-10,-9,-69
4109,-14,-17,-34,5,-27,-12,-8,-70
4110,-14,-16,-35,3,-28,-13,-8,-70
4111,-14,-13,-36,0,-28,-13,-8,-69
4112,-14,-9,-38,-1,-25,-13,-7,-66
4113,-13,-4,-41,1,-21,-13,-6,-62
4114,-12,1,-46,3,-19,-14,-5,-58
4115,-12,6,-49,2,-20,-17,-5,-55
4116,-13,8,-51,0,-24,-20,-6,-54
4117,-14,6,-50,-2,-29,-22,-8,-57
4118,-16,1,-47,-4,-32,-21,-10,-61
4119,-17,-6,-43,-3,-31,-19,-11,-64
4120,-17,-11,-38,-1,-28,-15,-11,-66
4121,-18,-15,-35,1,-26,-11,-12,-68
4122,-18,-17,-34,0,-25,-10,-12,-71
4123,-18,-17,-33,-2,-25,-11,-12,-71
4124,-17,-14,-35,-3,-20,-12,-12,-69
4125,-16,-10,-39,-3,-16,-13,-12,-66
4126,-14,-9,-45,-2,-15,-15,-11,-65
4127,-11,-10,-49,-1,-19,-16,-10,-66
4128,-10,-13,-51,1,-26,-16,-10,-69
4129,-10,-16,-50,3,-32,-15,-9,-73
4130,-10,-16,-49,6,-36,-13,-7,-74
4131,-10,-12,-49,8,-35,-11,-6,-71
4132,-11,-7,-52,7,-32,-13,-4,-66
4133,-11,0,-58,4,-27,-18,-1,-59
4134,-12,7,-65,4,-22,-24,1,-52
4135,-13,12,-68,5,-18,-28,2,-47
4136,-15,13,-66,7,-15,-31,2,-45
4137,-16,15,-62,10,-12,-32,2,-44
4138,-15,14,-57,12,-11,-30,2,-45
4139,-13,9,-53,10,-16,-27,1,-48
4140,-12,1,-50,5,-23,-25,-1,-54
4141,-10,-7,-47,3,-26,-24,-2,-58
4142,-9,-14,-45,2,-26,-21,-3,-62
4143,-8,-18,-44,2,-26,-18,-5,-64
4144,-9,-17,-46,1,-28,-16,-6,-66
4145,-9,-15,-48,-2,-31,-16,-7,-68
4146,-9,-15,-50,-4,-34,-15,-8,-70
4147,-11,-18,-49,-4,-35,-13,-8,-74
4148,-13,-21,-44,-1,-33,-10,-8,-77
4149,-15,-22,-40,3,-31,-8,-8,-78
4150,-14,-22,-40,4,-32,-11,-6,-77
4151,-12,-23,-44,3,-36,-19,-4,-77
4152,-8,-28,-50,2,-44,-26,-2,-78
4153,-4,-33,-56,0,-51,-31,1,-79
4154,1,-36,-64,1,-54,-33,3,-78
4155,3,-37,-69,5,-54,-33,5,-77
4156,2,-34,-69,8,-52,-32,6,-75
4157,-2,-28,-67,8,-50,-32,5,-73
4158,-6,-22,-64,6,-51,-32,3,-71
4159,-9,-20,-62,3,-51,-32,0,-71
4160,-10,-20,-60,0,-49,-28,-3,-70
4161,-12,-17,-59,-2,-43,-23,-6,-68
4162,-14,-13,-59,-3,-37,-20,-10,-65
4163,-17,-11,-59,-5,-32,-18,-13,-63
4164,-19,-11,-56,-7,-29,-19,-15,-62
4165,-21,-13,-53,-10,-28,-18,-17,-64
4166,-22,-17,-51,-12,-30,-16,-18,-67
4167,-21,-22,-50,-15,-34,-15,-19,-71
4168,-19,-25,-50,-16,-39,-15,-19,-75
4169,-17,-25,-52,-16,-42,-17,-18,-76
