Time,F3 - C3,C3 - P3,P3 - O1,F4 - C4,C4 - P4,P4 - O2,FZ - CZ,CZ - PZ
1,2,1,-8,4,2,-9,-1,-1
2,1,2,-6,3,2,-6,-1,-1
3,0,2,-5,3,2,-5,-2,0
4,-2,4,-5,2,3,-6,-2,0
5,-4,5,-6,1,3,-8,-3,0
6,-5,6,-9,-1,2,-12,-3,-1
7,-6,6,-12,-2,1,-15,-4,-2
8,-6,5,-14,-3,0,-18,-4,-3
9,-6,4,-16,-4,-1,-18,-5,-3
10,-6,3,-14,-5,-1,-15,-5,-4
11,-5,2,-9,-4,-1,-7,-5,-4
12,-4,3,-3,-3,-1,4,-4,-4
13,-3,4,2,-2,-1,14,-3,-3
14,-1,5,4,0,-1,21,-2,-2
15,-1,5,3,1,0,21,-1,-2
16,0,4,1,2,0,16,0,-1
17,0,4,-2,2,1,10,-1,-1
18,0,3,-3,1,2,6,-1,-1
19,-1,3,-3,0,2,4,-2,-1
20,-2,3,-4,0,3,-3,-2,-1
21,-3,3,-7,0,3,-12,-2,-1
22,-4,3,-9,1,4,-22,-2,-1
23,-5,2,-11,1,4,-28,-2,-1
24,-5,1,-11,1,4,-30,-2,-1
25,-5,0,-8,0,4,-25,-2,-2
26,-6,0,-5,-1,4,-16,-3,-3
27,-6,0,-2,-2,3,-8,-3,-3
28,-6,1,-1,-3,3,-4,-3,-4
29,-5,2,-2,-3,3,-3,-3,-4
30,-5,3,-2,-2,3,-1,-2,-4
31,-5,3,-1,-2,2,1,-2,-4
32,-5,3,0,-1,2,3,-2,-4
33,-5,3,2,-1,3,5,-3,-4
34,-5,3,3,1,3,7,-3,-4
35,-4,4,4,1,3,8,-3,-3
36,-3,4,3,3,3,7,-2,-2
37,-1,5,1,4,2,6,0,-2
38,1,6,0,5,1,6,2,-2
39,3,6,-1,7,-1,8,3,-2
40,4,5,-1,7,-1,9,4,-2
41,5,5,-1,8,-1,7,5,-1
42,5,5,-2,9,-1,5,6,0
43,5,5,-2,9,0,4,6,2
44,5,5,-1,10,0,4,6,3
45,5,4,0,11,1,5,6,4
46,4,4,2,12,1,6,6,4
47,4,4,2,13,2,4,6,4
48,5,4,1,13,3,0,6,4
49,5,4,0,13,3,-5,5,3
50,4,3,-1,12,3,-5,4,2
51,4,2,-1,10,2,-3,2,1
52,3,1,0,8,2,0,1,-1
53,2,0,1,6,1,2,0,-2
54,2,-1,2,5,0,5,-1,-3
55,2,-2,3,3,0,7,-2,-3
56,2,-2,2,2,0,9,-3,-4
57,3,-2,1,1,0,8,-4,-4
58,4,-3,1,1,0,8,-4,-3
59,5,-3,-1,0,1,8,-5,-3
60,6,-3,-2,1,1,7,-4,-2
61,7,-3,-3,3,2,4,-3,-1
62,7,-2,-4,5,2,2,-1,0
63,7,-1,-5,6,3,-2,0,1
64,6,0,-5,6,3,-4,0,1
65,5,1,-4,5,2,-4,-1,1
66,4,0,-2,3,1,1,-3,1
67,4,0,1,1,1,6,-4,0
68,3,-1,2,-1,0,10,-4,-1
69,3,-1,2,-2,-1,10,-3,-2
70,3,-1,2,-2,-1,11,-3,-3
71,3,-1,3,-2,-2,12,-2,-3
72,2,-1,6,-2,-2,16,-1,-3
73,2,-1,8,-3,-3,21,-1,-4
74,2,-1,10,-3,-3,23,-1,-3
75,3,-2,10,-2,-3,23,0,-3
76,4,-2,10,-1,-2,22,1,-3
77,5,-3,10,0,-2,20,1,-3
78,5,-4,10,1,-2,19,2,-2
79,4,-5,9,1,-2,18,1,-2
80,3,-5,9,1,-2,17,1,-3
81,2,-5,8,0,-2,18,-1,-3
82,1,-4,7,-1,-2,18,-2,-2
83,0,-3,5,-2,-2,16,-2,-1
84,0,-1,3,-2,-1,13,-2,0
85,0,1,2,-2,0,8,-2,1
86,0,2,2,-2,1,5,-2,1
87,1,2,3,-2,2,6,-2,2
88,0,2,5,-2,2,11,-2,2
89,0,2,7,-2,2,16,-2,1
90,-1,1,7,-2,2,18,-2,0
91,-1,0,7,-2,2,20,-2,-2
92,-1,-1,7,-2,2,21,-3,-3
93,-1,-3,8,-1,2,24,-3,-4
94,-1,-4,9,-1,1,27,-3,-5
95,0,-5,10,0,1,28,-3,-6
96,1,-5,10,1,0,27,-2,-6
97,1,-5,9,2,0,24,-1,-5
98,2,-4,6,3,-1,19,-1,-4
99,2,-4,4,3,-1,14,-1,-4
100,2,-5,3,2,-1,11,-2,-3
101,2,-7,3,1,-2,11,-3,-3
102,3,-9,3,-1,-2,10,-4,-3
103,4,-12,2,-2,-1,5,-4,-3
104,6,-13,0,-2,-1,-1,-4,-2
105,7,-13,-2,-2,-1,-8,-4,-1
106,7,-13,-4,0,-1,-14,-3,0
107,7,-11,-5,1,-2,-17,-3,0
108,6,-9,-5,2,-2,-15,-2,0
109,5,-7,-3,2,-1,-9,-2,0
110,4,-5,-2,2,-1,-4,-1,0
111,3,-3,-2,1,0,-2,-1,1
112,3,-2,-2,1,1,-3,-1,1
113,3,0,-2,1,2,-4,-1,2
114,2,2,-2,1,3,-3,-1,2
115,0,3,-2,0,3,-3,-2,2
116,-2,3,-2,-1,4,-3,-2,2
117,-4,3,-2,-2,4,-2,-2,2
118,-5,3,-2,-3,4,1,-2,1
119,-6,3,-1,-4,3,3,-2,1
120,-6,3,0,-4,3,2,-1,2
121,-5,4,-1,-4,3,1,-1,3
122,-5,4,-1,-4,2,1,-1,3
123,-5,5,-1,-4,2,1,-2,4
124,-5,5,-2,-4,2,1,-2,3
125,-6,4,-1,-5,2,4,-3,2
126,-6,3,-1,-7,2,8,-4,0
127,-7,1,0,-8,1,10,-5,-2
128,-8,1,-1,-9,0,11,-5,-3
129,-9,1,-2,-10,-1,11,-5,-3
130,-9,0,-3,-9,-2,14,-5,-3
131,-8,1,-4,-9,-2,17,-5,-3
132,-7,0,-4,-8,-1,19,-4,-3
133,-6,0,-4,-7,0,19,-3,-3
134,-4,0,-4,-5,1,17,-2,-2
135,-3,0,-4,-4,3,13,-1,-1
136,-2,0,-4,-3,4,10,-1,0
137,-2,1,-4,-2,5,9,-1,1
138,-1,1,-4,-2,6,8,-1,1
139,0,1,-5,-2,6,6,-1,1
140,1,1,-7,-2,5,3,-1,1
141,1,0,-9,-2,4,1,-1,0
142,2,-1,-9,-2,3,0,-1,-1
143,1,-1,-9,-2,3,-1,-1,-1
144,1,-1,-9,-2,4,-2,-1,-2
145,0,-1,-8,-2,4,-3,-1,-1
146,0,-1,-7,-2,5,-5,1,-2
147,2,0,-9,-1,5,-10,2,-2
148,3,-1,-10,0,5,-14,3,-2
149,5,-1,-11,1,4,-14,4,-2
150,5,-2,-12,1,3,-13,5,-2
151,6,-3,-11,2,1,-11,5,-2
152,5,-3,-11,2,0,-10,5,-2
153,4,-3,-10,3,0,-6,6,-2
154,3,-2,-8,4,0,-1,7,-1
155,2,0,-7,5,0,3,7,0
156,2,1,-7,6,0,5,8,1
157,2,3,-8,6,1,4,8,2
158,2,5,-11,7,2,-1,8,3
159,2,6,-15,7,2,-7,9,4
160,3,7,-18,7,3,-14,9,4
161,3,7,-19,7,4,-17,9,4
162,3,6,-19,7,4,-17,10,4
163,3,6,-16,7,4,-12,9,4
164,3,5,-13,6,3,-5,9,4
165,3,5,-11,6,2,0,8,5
166,3,5,-10,5,1,3,7,5
167,3,5,-8,4,0,5,6,4
168,1,5,-7,2,-1,5,4,3
169,-1,4,-6,0,0,2,3,2
170,-2,4,-7,-3,2,-5,3,1
171,-3,3,-9,-7,6,-11,3,1
172,-3,3,-12,-10,9,-16,3,0
173,-2,2,-13,-14,13,-17,4,0
174,-1,2,-13,-16,15,-15,5,0
175,-1,1,-12,-18,16,-11,5,0
176,-1,0,-10,-19,16,-8,5,-1
177,-1,-1,-9,-20,16,-9,4,-1
178,-1,-2,-10,-19,16,-15,4,-1
179,-1,-2,-12,-19,16,-23,4,-2
180,-1,-3,-15,-18,16,-31,4,-2
181,-1,-4,-18,-18,14,-36,4,-3
182,-2,-5,-22,-19,13,-40,3,-4
183,-3,-6,-25,-20,12,-42,1,-5
184,-4,-7,-26,-21,11,-42,0,-6
185,-4,-8,-25,-22,10,-37,0,-6
186,-4,-8,-21,-22,10,-26,0,-7
187,-4,-8,-14,-22,11,-10,0,-7
188,-4,-7,-7,-23,12,8,0,-6
189,-4,-6,0,-23,13,23,1,-6
190,-4,-4,3,-22,14,29,2,-5
191,-4,-3,2,-22,15,26,2,-5
192,-3,-2,-1,-22,15,18,3,-4
193,-3,-1,-5,-21,15,9,3,-3
194,-2,0,-8,-20,14,4,3,-3
195,-2,0,-8,-20,14,3,3,-2
196,-2,1,-7,-19,14,5,2,-1
197,-2,1,-4,-19,14,8,2,0
198,-2,0,-1,-17,14,11,2,0
199,-2,0,2,-16,14,13,2,1
200,-1,-1,4,-15,15,13,3,1
201,1,-1,6,-13,16,11,3,1
202,3,0,7,-11,17,10,5,2
203,5,0,10,-8,18,11,7,2
204,7,1,13,-6,18,15,10,2
205,7,1,17,-4,18,20,12,2
206,8,1,20,-2,18,25,14,1
207,9,1,22,1,18,26,16,1
208,10,2,23,3,18,25,19,1
209,12,3,23,6,19,23,21,2
210,14,4,22,9,20,21,24,4
211,17,4,21,11,20,20,27,5
212,20,4,21,13,19,23,29,5
213,22,4,23,14,19,28,30,6
214,24,4,25,15,18,35,32,6
215,26,4,26,17,17,40,33,5
216,28,4,27,18,17,42,35,6
217,30,5,26,20,17,40,36,6
218,31,5,25,22,18,35,38,7
219,32,6,24,24,18,32,39,7
220,32,6,24,25,19,32,40,8
221,32,7,26,26,19,36,40,8
222,32,7,28,26,18,42,40,8
223,33,8,30,27,18,45,41,8
224,34,9,30,29,18,45,42,9
225,35,10,30,30,19,44,43,9
226,36,11,30,31,19,42,43,10
227,36,11,30,31,19,41,43,10
228,35,11,31,30,19,41,43,10
229,34,9,31,29,18,39,41,9
230,33,8,31,27,18,37,40,9
231,32,8,31,26,18,35,38,9
232,31,9,31,25,18,32,36,9
233,30,10,30,24,18,28,34,9
234,28,10,27,24,18,24,32,9
235,27,11,25,23,17,21,31,9
236,26,10,22,23,15,18,31,9
237,24,10,21,22,14,14,30,8
238,23,9,20,20,14,10,29,8
239,21,9,20,19,14,8,28,7
240,21,8,21,18,15,7,27,8
241,21,7,23,18,16,9,27,8
242,22,7,24,19,16,13,27,8
243,22,7,25,18,15,17,27,7
244,22,7,24,18,14,20,27,7
245,23,8,23,17,12,20,27,6
246,23,8,21,16,11,16,26,6
247,24,7,19,16,11,11,25,6
248,24,7,18,15,10,8,24,6
249,24,6,18,15,10,8,23,6
250,24,6,18,14,10,11,22,5
251,23,4,19,13,9,14,22,4
252,23,3,18,12,8,14,22,4
253,23,2,17,12,7,12,22,3
254,23,0,17,11,7,10,21,3
255,21,-1,19,10,6,8,19,2
256,20,-2,20,9,6,8,18,1
257,18,-2,21,8,6,7,16,0
258,17,-3,21,7,6,5,16,0
259,17,-3,20,7,7,1,15,0
260,17,-3,18,7,8,-5,15,1
261,17,-3,17,7,8,-8,15,2
262,17,-3,17,7,9,-8,14,2
263,17,-3,16,7,9,-5,14,2
264,16,-2,15,6,10,-4,14,2
265,15,0,13,6,10,-7,14,2
266,14,2,11,5,10,-10,14,3
267,13,3,10,5,10,-12,13,3
268,13,3,10,4,10,-10,12,3
269,13,2,11,4,9,-7,10,2
270,13,1,11,3,8,-5,10,2
271,13,-1,11,3,7,-4,10,0
272,14,-2,11,3,7,-5,11,-1
273,14,-4,10,2,7,-7,11,-2
274,14,-4,10,1,7,-9,12,-2
275,14,-5,9,-1,8,-9,12,-2
276,14,-5,8,-2,7,-8,11,-2
277,15,-4,7,-2,7,-9,11,-2
278,15,-4,5,-3,6,-14,11,-2
279,16,-4,3,-2,5,-21,11,-3
280,16,-5,0,-1,4,-29,12,-3
281,17,-4,-3,1,4,-35,12,-3
282,17,-4,-6,2,3,-39,12,-3
283,16,-4,-8,3,3,-39,12,-3
284,14,-4,-8,3,2,-37,11,-3
285,13,-5,-7,3,1,-36,10,-3
286,11,-5,-5,3,0,-36,9,-3
287,10,-5,-5,3,0,-36,8,-3
288,10,-5,-4,4,-1,-34,9,-3
289,10,-4,-2,5,-1,-29,9,-3
290,10,-4,1,6,-1,-23,9,-3
291,11,-4,2,6,-1,-19,9,-2
292,11,-3,3,7,-1,-17,10,-2
293,12,-1,1,7,0,-18,10,-1
294,12,0,-1,7,1,-19,12,-1
295,12,1,-4,6,1,-20,13,0
296,12,1,-5,6,2,-20,13,0
297,10,1,-5,5,1,-21,13,-1
298,9,0,-5,5,1,-23,12,-1
299,9,0,-5,6,0,-26,11,-2
300,8,0,-4,6,-1,-27,11,-2
301,8,0,-3,7,-2,-25,10,-2
302,7,0,-3,7,-3,-23,10,-3
303,7,0,-4,7,-3,-22,10,-3
304,7,1,-6,6,-3,-24,10,-3
305,7,1,-9,5,-4,-27,10,-3
306,6,1,-12,4,-4,-30,9,-3
307,5,2,-13,2,-5,-32,9,-3
308,4,3,-12,0,-5,-31,8,-3
309,3,3,-10,-2,-4,-30,8,-4
310,2,3,-9,-3,-4,-30,7,-4
311,2,3,-8,-3,-3,-32,6,-4
312,1,2,-5,-3,-2,-34,5,-4
313,0,1,-2,-3,-1,-35,3,-3
314,-1,-1,1,-3,1,-35,1,-3
315,-1,-2,3,-3,1,-35,-1,-3
316,0,-3,4,-2,2,-36,-1,-2
317,1,-4,4,-1,1,-36,1,-2
318,2,-4,3,0,1,-36,2,-1
319,2,-4,1,1,0,-37,4,-1
320,3,-3,-1,1,-1,-38,5,-2
321,3,-3,-3,1,-1,-40,7,-2
322,3,-4,-5,1,-1,-45,8,-3
323,3,-5,-9,1,-2,-51,9,-3
324,4,-5,-13,2,-2,-60,10,-4
325,4,-6,-16,2,-2,-67,11,-4
326,4,-6,-18,3,-1,-71,11,-5
327,4,-6,-19,3,-1,-73,11,-5
328,4,-5,-19,4,0,-76,11,-4
329,4,-5,-18,5,1,-75,11,-4
330,4,-5,-16,4,1,-72,11,-4
331,4,-6,-13,4,1,-67,10,-5
332,4,-7,-12,2,2,-64,9,-6
333,4,-7,-12,1,2,-63,8,-6
334,3,-8,-13,-1,3,-65,6,-6
335,3,-7,-13,-2,3,-68,5,-5
336,3,-7,-12,-3,3,-68,4,-5
337,3,-6,-11,-3,3,-66,4,-5
338,2,-6,-8,-3,2,-61,3,-5
339,1,-7,-6,-3,0,-53,2,-6
340,-2,-8,-3,-4,-1,-47,-1,-7
341,-4,-10,-2,-6,-3,-45,-4,-8
342,-5,-11,-3,-7,-3,-49,-6,-9
343,-6,-12,-5,-8,-3,-56,-7,-9
344,-6,-13,-9,-9,-3,-63,-8,-8
345,-5,-12,-13,-8,-3,-68,-8,-8
346,-4,-11,-17,-8,-3,-70,-6,-7
347,-3,-9,-17,-6,-3,-69,-5,-6
348,-2,-8,-17,-5,-2,-68,-4,-4
349,-1,-6,-17,-4,-1,-68,-2,-3
350,-1,-3,-19,-3,0,-71,-2,-1
351,-1,-1,-20,-2,1,-73,-1,0
352,-1,2,-20,-1,1,-70,-1,1
353,-2,3,-17,-1,1,-62,-1,1
354,-2,4,-14,-1,1,-53,-1,1
355,-3,4,-12,-1,2,-48,-2,1
356,-4,4,-12,-2,2,-50,-3,1
357,-6,4,-13,-3,2,-54,-5,1
358,-9,3,-14,-6,2,-57,-7,-1
359,-11,1,-14,-8,1,-59,-9,-2
360,-13,-2,-15,-10,0,-64,-11,-4
361,-15,-5,-16,-12,-2,-68,-13,-6
362,-16,-7,-15,-13,-3,-69,-14,-7
363,-17,-8,-12,-12,-4,-65,-14,-8
364,-17,-9,-8,-11,-5,-55,-13,-8
365,-16,-9,-4,-10,-4,-44,-12,-7
366,-15,-9,-1,-9,-4,-35,-10,-7
367,-14,-9,-2,-9,-3,-31,-10,-7
368,-13,-9,-5,-8,-3,-34,-9,-6
369,-12,-7,-9,-8,-2,-39,-9,-6
370,-11,-6,-13,-8,-1,-41,-9,-5
371,-11,-4,-15,-8,-1,-42,-9,-5
372,-10,-3,-16,-9,0,-43,-9,-4
373,-10,-3,-16,-9,0,-43,-9,-4
374,-9,-3,-16,-10,-1,-42,-8,-4
375,-9,-3,-16,-10,-1,-42,-8,-3
376,-9,-3,-17,-10,-2,-43,-8,-3
377,-10,-2,-16,-10,-2,-43,-8,-2
378,-11,-1,-15,-10,-2,-42,-10,-2
379,-12,-1,-12,-12,-2,-40,-11,-3
380,-14,-2,-10,-13,-2,-39,-13,-4
381,-16,-4,-7,-15,-3,-37,-15,-6
382,-17,-5,-6,-15,-4,-37,-17,-7
383,-18,-7,-6,-15,-6,-38,-17,-9
384,-18,-9,-6,-14,-7,-40,-17,-9
385,-18,-10,-7,-12,-7,-41,-16,-9
386,-17,-12,-8,-11,-8,-42,-15,-9
387,-15,-13,-9,-10,-8,-45,-14,-9
388,-13,-14,-11,-10,-8,-46,-14,-9
389,-11,-15,-12,-9,-8,-46,-14,-10
390,-10,-16,-13,-9,-8,-43,-14,-10
391,-8,-15,-13,-9,-8,-43,-14,-10
392,-8,-13,-14,-8,-7,-45,-14,-9
393,-7,-11,-16,-7,-6,-49,-13,-8
394,-7,-8,-17,-6,-6,-52,-11,-7
395,-6,-6,-17,-4,-5,-51,-9,-6
396,-6,-4,-14,-3,-5,-45,-8,-5
397,-6,-2,-12,-2,-5,-39,-7,-4
398,-5,-2,-11,-2,-4,-36,-6,-3
399,-5,-2,-11,-3,-4,-36,-6,-2
400,-5,-2,-10,-4,-4,-37,-7,-1
401,-6,-4,-9,-5,-4,-38,-9,-1
402,-7,-6,-6,-6,-5,-35,-10,-1
403,-8,-8,-3,-7,-6,-31,-12,-3
404,-9,-10,-1,-8,-7,-28,-13,-4
405,-11,-12,1,-9,-8,-27,-14,-5
406,-12,-13,2,-10,-8,-26,-15,-6
407,-14,-13,1,-11,-9,-25,-15,-7
408,-14,-13,0,-12,-10,-25,-15,-8
409,-14,-13,-2,-12,-10,-27,-14,-8
410,-13,-13,-5,-13,-10,-30,-13,-8
411,-12,-13,-8,-12,-10,-34,-12,-8
412,-11,-13,-10,-12,-10,-35,-12,-8
413,-11,-13,-10,-11,-10,-35,-11,-9
414,-11,-12,-10,-11,-10,-36,-11,-9
415,-10,-11,-11,-10,-9,-38,-11,-8
416,-9,-9,-11,-10,-9,-39,-11,-7
417,-7,-7,-11,-10,-8,-38,-11,-6
418,-5,-5,-10,-10,-7,-34,-11,-5
419,-4,-4,-7,-10,-6,-27,-11,-4
420,-3,-3,-3,-10,-5,-20,-11,-2
421,-2,-2,1,-9,-4,-13,-11,-1
422,-2,-1,5,-8,-2,-9,-11,1
423,-3,-1,8,-7,-1,-7,-11,3
424,-3,0,10,-6,1,-5,-11,4
425,-3,-1,12,-6,2,-1,-11,5
426,-4,-2,15,-6,2,6,-11,4
427,-5,-4,19,-7,1,14,-12,3
428,-7,-7,25,-8,-1,23,-14,2
429,-9,-9,31,-10,-3,31,-16,0
430,-10,-12,35,-12,-4,36,-18,-2
431,-12,-13,36,-14,-5,36,-19,-3
432,-13,-13,33,-15,-6,30,-20,-4
433,-14,-12,28,-16,-6,22,-19,-4
434,-15,-11,23,-15,-6,14,-17,-3
435,-14,-9,19,-14,-6,8,-15,-2
436,-14,-8,15,-13,-5,6,-13,0
437,-12,-7,14,-12,-5,10,-11,2
438,-11,-6,14,-12,-5,17,-11,3
439,-10,-4,14,-12,-5,21,-11,5
440,-9,-3,12,-11,-5,19,-10,6
441,-8,-1,10,-10,-4,14,-9,8
442,-6,2,8,-8,-3,9,-8,11
443,-4,4,6,-7,-2,6,-8,13
444,-2,5,6,-6,-1,7,-7,14
445,-1,6,6,-6,0,11,-6,16
446,1,8,7,-5,1,16,-5,16
447,2,8,8,-5,0,17,-5,16
448,3,9,8,-5,1,16,-4,16
449,3,8,9,-5,1,13,-4,15
450,2,7,12,-6,1,14,-5,14
451,1,4,16,-7,1,16,-6,12
452,-2,2,20,-9,0,19,-8,11
453,-4,-1,24,-11,-1,22,-10,9
454,-7,-4,26,-12,-1,22,-12,7
455,-9,-6,27,-14,-2,22,-14,5
456,-10,-7,27,-15,-4,22,-16,3
457,-11,-9,28,-16,-5,25,-17,1
458,-12,-11,28,-17,-7,28,-18,-1
459,-12,-13,27,-17,-8,30,-19,-2
460,-11,-13,26,-16,-8,28,-19,-3
461,-10,-12,23,-14,-8,20,-18,-2
462,-9,-10,19,-12,-8,10,-17,-1
463,-8,-8,16,-10,-7,1,-14,1
464,-7,-6,14,-9,-6,-3,-13,3
465,-7,-3,14,-7,-5,0,-11,4
466,-7,-1,15,-6,-3,4,-10,6
467,-6,1,16,-4,-2,7,-9,8
468,-5,3,16,-2,-1,9,-7,9
469,-4,5,17,-1,0,11,-5,9
470,-2,6,18,0,1,15,-3,9
471,-2,7,19,0,2,19,-2,9
472,-1,7,19,0,2,22,-2,9
473,0,8,19,0,2,21,-2,8
474,1,7,18,0,2,17,-2,8
475,1,6,17,0,2,14,-3,8
476,1,3,19,0,2,14,-4,7
477,0,1,22,-1,1,16,-5,5
478,-2,-2,24,-2,-1,18,-6,3
479,-3,-4,25,-3,-2,17,-7,1
480,-4,-5,24,-3,-4,16,-8,-1
481,-4,-6,23,-4,-6,15,-8,-2
482,-5,-7,21,-5,-7,14,-8,-4
483,-5,-7,20,-6,-7,17,-8,-5
484,-6,-8,19,-7,-8,19,-9,-6
485,-7,-8,16,-9,-9,17,-11,-7
486,-7,-8,11,-10,-9,11,-11,-7
487,-7,-7,6,-10,-9,4,-12,-6
488,-6,-6,1,-10,-8,-1,-11,-4
489,-5,-4,-2,-8,-7,-5,-9,-2
490,-4,-2,-2,-6,-6,-6,-7,0
491,-4,0,-2,-4,-5,-5,-5,2
492,-3,3,-1,-2,-3,-3,-3,4
493,-3,5,-1,-1,-2,0,-2,5
494,-3,8,-1,-1,0,1,0,6
495,-3,11,-1,0,3,0,0,8
496,-3,13,1,0,4,-1,1,9
497,-3,13,2,1,5,-1,0,9
498,-3,13,4,2,6,0,-1,10
499,-2,12,6,3,5,3,-1,10
500,-2,11,7,3,5,7,-2,9
501,-1,10,9,3,4,13,-2,8
502,0,8,9,3,3,17,-2,7
503,1,6,8,2,3,17,-2,6
504,2,5,8,2,2,15,-2,5
505,2,3,8,2,2,13,-2,4
506,2,1,7,1,1,11,-2,3
507,1,-1,5,1,0,4,-2,2
508,0,-3,2,-1,0,-4,-2,1
509,-1,-5,-1,-2,-1,-12,-3,-1
510,-1,-7,-4,-5,-2,-18,-4,-3
511,-2,-8,-5,-7,-3,-20,-5,-5
512,-2,-9,-5,-8,-4,-18,-7,-6
513,-3,-8,-4,-9,-4,-13,-8,-7
514,-4,-7,-3,-9,-4,-10,-9,-6
515,-5,-5,-3,-8,-3,-10,-9,-5
516,-5,-2,-4,-7,-1,-12,-9,-4
517,-6,1,-6,-6,0,-16,-9,-2
518,-7,4,-6,-4,1,-17,-8,0
519,-7,5,-6,-3,1,-17,-7,1
520,-6,5,-5,-2,0,-17,-6,2
521,-5,5,-4,-1,1,-17,-5,2
522,-4,5,-3,-1,1,-16,-5,3
523,-3,5,-1,0,1,-12,-5,3
524,-3,4,2,-1,2,-8,-5,2
525,-4,3,4,-1,1,-6,-5,1
526,-5,1,5,0,1,-8,-6,0
527,-5,-1,6,0,1,-10,-7,-2
528,-5,-3,7,-1,0,-11,-7,-3
529,-6,-5,9,-1,-1,-11,-7,-4
530,-6,-7,8,-2,-2,-12,-7,-5
531,-7,-9,6,-3,-3,-14,-8,-6
532,-8,-10,3,-4,-5,-18,-8,-7
533,-8,-10,-3,-4,-6,-28,-9,-8
534,-8,-9,-9,-3,-8,-41,-9,-8
535,-8,-8,-13,-2,-9,-52,-8,-7
536,-8,-6,-15,-1,-9,-56,-8,-6
537,-7,-4,-13,0,-10,-52,-7,-5
538,-6,-2,-9,2,-9,-40,-6,-4
539,-5,1,-3,3,-8,-26,-4,-3
540,-4,3,3,5,-7,-15,-3,-2
541,-2,5,6,6,-6,-12,-1,-1
542,-1,6,6,8,-5,-16,-1,1
543,-1,6,4,9,-5,-21,-1,2
544,0,6,2,8,-5,-24,-1,2
545,1,6,1,8,-5,-24,-2,3
546,2,5,1,7,-5,-22,-3,3
547,3,3,3,6,-5,-20,-3,3
548,4,2,4,6,-5,-17,-4,3
549,5,0,6,6,-5,-14,-4,4
550,4,-1,7,6,-5,-12,-4,4
551,3,-2,9,6,-4,-10,-4,4
552,2,-4,10,5,-5,-8,-5,2
553,1,-5,10,4,-5,-8,-6,1
554,-1,-8,10,1,-6,-9,-7,-2
555,-2,-10,8,-1,-8,-11,-8,-4
556,-3,-11,5,-2,-10,-15,-8,-6
557,-4,-11,2,-3,-10,-19,-8,-8
558,-5,-11,-2,-4,-11,-22,-8,-9
559,-6,-10,-4,-4,-10,-23,-8,-9
560,-7,-8,-4,-5,-10,-20,-8,-10
561,-7,-7,-2,-5,-10,-14,-9,-9
562,-7,-6,-1,-5,-10,-9,-9,-9
563,-7,-5,-1,-5,-9,-9,-10,-7
564,-6,-3,-2,-5,-8,-12,-9,-6
565,-4,-1,-4,-4,-6,-18,-8,-4
566,-3,2,-5,-3,-3,-24,-7,-2
567,-2,4,-6,-2,-1,-27,-5,0
568,-1,6,-6,0,0,-28,-4,2
569,-1,9,-4,2,1,-25,-1,3
570,-1,11,-2,3,1,-20,1,4
571,-1,11,2,4,2,-14,2,5
572,-1,10,5,5,2,-9,2,5
573,-2,8,8,5,1,-5,2,4
574,-3,5,10,4,0,-3,0,2
575,-4,2,12,2,-1,1,-2,0
576,-5,-2,14,0,-2,5,-5,-3
577,-6,-5,15,-3,-3,7,-7,-4
578,-6,-7,14,-4,-3,7,-9,-5
579,-6,-8,11,-5,-3,3,-10,-6
580,-6,-8,7,-6,-3,-1,-10,-6
581,-5,-8,3,-6,-4,-4,-11,-6
582,-5,-7,1,-6,-4,-5,-11,-6
583,-5,-6,0,-5,-5,-5,-11,-5
584,-4,-5,1,-4,-5,-4,-11,-4
585,-4,-3,1,-3,-5,-5,-9,-3
586,-3,-1,-1,-1,-3,-8,-7,-2
587,-2,2,-3,1,-1,-10,-5,-1
588,-1,5,-3,2,0,-10,-4,0
589,0,7,-2,3,1,-6,-3,2
590,1,8,1,3,1,-2,-2,3
591,1,9,4,4,1,2,-2,4
592,1,10,6,4,1,6,-2,5
593,1,11,9,3,1,12,-2,6
594,1,11,11,3,0,16,-3,6
595,1,11,13,2,0,17,-3,6
596,1,10,14,2,0,14,-3,5
597,1,8,14,1,0,8,-4,5
598,-1,7,15,1,1,1,-5,4
599,-3,5,16,1,0,-5,-7,3
600,-5,2,16,-1,-1,-8,-9,2
601,-7,-1,16,-2,-2,-10,-11,0
602,-8,-3,14,-3,-4,-13,-13,-2
603,-9,-5,13,-4,-5,-18,-14,-3
604,-9,-5,11,-4,-5,-24,-14,-4
605,-10,-5,9,-4,-6,-29,-14,-5
606,-10,-5,7,-3,-6,-33,-13,-5
607,-11,-5,4,-3,-6,-36,-13,-5
608,-11,-4,3,-3,-5,-36,-12,-4
609,-10,-4,2,-4,-4,-33,-12,-4
610,-9,-3,3,-5,-3,-29,-12,-4
611,-9,-2,5,-6,-2,-26,-11,-3
612,-8,-1,7,-6,-1,-26,-11,-1
613,-6,1,7,-6,0,-28,-9,1
614,-5,2,6,-5,1,-30,-8,2
615,-4,4,5,-4,1,-30,-7,3
616,-3,5,5,-4,1,-28,-6,4
617,-2,5,6,-4,1,-27,-5,5
618,-2,5,6,-4,1,-31,-5,5
619,-2,4,4,-4,0,-37,-5,5
620,-2,2,2,-4,0,-46,-6,5
621,-2,0,-1,-4,0,-54,-7,4
622,-2,-2,-2,-5,0,-58,-8,3
623,-2,-4,-2,-6,-1,-58,-9,3
624,-2,-6,0,-7,-1,-56,-11,2
625,-3,-7,1,-9,-2,-54,-12,1
626,-3,-9,1,-10,-2,-53,-12,0
627,-2,-10,1,-11,-2,-53,-13,-1
628,-2,-11,1,-12,-3,-54,-13,-2
629,-2,-12,1,-12,-2,-54,-13,-2
630,-2,-12,1,-11,-2,-54,-12,-2
631,-3,-10,2,-10,-2,-51,-11,-2
632,-3,-9,3,-9,-2,-43,-10,-1
633,-3,-6,4,-8,-2,-34,-9,0
634,-3,-4,5,-7,-2,-29,-8,0
635,-3,-1,4,-6,-2,-29,-7,1
636,-2,2,3,-5,-1,-32,-5,2
637,-1,4,1,-3,-1,-35,-4,3
638,1,6,0,-2,0,-38,-2,5
639,3,8,-2,1,1,-41,0,6
640,4,8,-4,2,2,-42,2,6
641,5,8,-4,3,3,-42,3,6
642,4,8,-4,4,3,-42,3,5
643,3,7,-3,5,2,-40,4,5
644,1,7,0,5,1,-35,4,4
645,-2,5,3,5,1,-29,3,3
646,-3,4,4,4,0,-25,2,2
647,-4,2,5,2,0,-23,0,1
648,-4,0,5,0,0,-22,-2,0
649,-4,-2,5,-2,0,-20,-3,0
650,-4,-4,7,-3,0,-16,-5,-1
651,-4,-6,7,-4,-1,-10,-5,-2
652,-3,-7,7,-4,-1,-3,-6,-2
653,-2,-8,7,-5,-2,5,-6,-3
654,-1,-8,7,-5,-3,13,-6,-3
655,-1,-8,8,-6,-4,18,-6,-3
656,0,-8,8,-5,-5,21,-6,-3
657,0,-7,7,-5,-6,19,-5,-3
658,0,-6,4,-4,-5,11,-4,-2
659,1,-4,2,-3,-4,3,-4,-1
660,1,-2,1,-2,-3,-3,-3,1
661,2,0,1,-2,-1,-6,-2,2
662,2,2,1,-1,1,-9,0,3
663,2,3,1,1,3,-13,1,3
664,2,4,1,2,4,-18,1,4
665,2,4,1,3,6,-20,0,5
666,2,4,2,2,7,-20,-1,6
667,1,3,3,2,8,-19,-3,6
668,0,3,4,1,8,-17,-4,6
669,-1,2,5,0,7,-15,-5,5
670,-2,1,6,-1,5,-12,-7,3
671,-3,-1,7,-3,3,-7,-7,2
672,-4,-3,9,-4,2,-3,-7,0
673,-5,-4,7,-5,1,-4,-7,-1
674,-5,-5,3,-6,1,-10,-6,-1
675,-5,-6,-3,-6,1,-18,-4,-2
676,-4,-6,-7,-5,0,-25,-3,-2
677,-2,-6,-10,-4,0,-25,-2,-2
678,-1,-6,-9,-3,-1,-17,-1,-3
679,0,-6,-6,-2,-1,-6,0,-3
680,0,-6,-3,-1,-1,3,0,-3
681,1,-5,-3,-1,0,5,0,-3
682,1,-4,-3,0,1,4,0,-2
683,1,-2,-4,0,1,4,0,-2
684,1,0,-4,0,1,7,1,-2
685,1,2,-2,0,1,11,1,-2
686,0,4,0,-1,0,16,1,-1
687,-1,6,2,-1,0,19,0,-1
688,-2,8,4,0,0,21,0,1
689,-3,9,5,0,1,21,1,3
690,-3,10,5,0,2,21,1,4
691,-3,10,5,1,3,20,2,5
692,-4,9,5,1,3,19,2,5
693,-5,8,6,1,3,20,2,4
694,-5,7,6,0,3,20,1,3
695,-6,5,6,-1,2,19,1,2
696,-6,2,6,-2,1,18,1,0
697,-6,-1,5,-2,0,18,1,-2
698,-5,-4,3,-2,-2,17,1,-3
699,-4,-6,-2,-1,-3,11,1,-4
700,-4,-7,-7,0,-4,4,2,-5
701,-3,-8,-10,1,-5,-1,2,-5
702,-3,-8,-12,1,-5,-5,1,-6
703,-3,-8,-12,2,-5,-6,1,-6
704,-3,-8,-12,3,-4,-7,0,-6
705,-3,-8,-13,4,-4,-8,0,-6
706,-3,-7,-15,5,-3,-10,0,-6
707,-3,-4,-15,6,-1,-12,0,-4
708,-2,-2,-12,7,1,-9,1,-3
709,0,1,-6,8,2,4,2,-1
710,2,3,2,8,4,21,3,1
711,3,5,8,8,4,39,4,4
712,4,7,12,7,4,54,4,5
713,5,8,13,7,4,61,4,7
714,5,9,10,6,3,61,3,8
715,5,9,7,5,3,57,2,8
716,5,8,4,5,3,51,0,8
717,5,6,2,4,3,45,-1,8
718,4,4,1,4,3,38,-1,7
719,3,2,2,3,3,33,-2,7
720,2,0,4,3,2,30,-3,7
721,1,-2,5,3,1,27,-3,6
722,1,-4,3,3,1,20,-3,5
723,0,-5,0,3,0,10,-3,4
724,0,-6,-3,3,-1,1,-2,3
725,0,-6,-6,3,-2,-6,-1,2
726,-1,-7,-8,3,-3,-10,-1,1
727,-1,-7,-10,3,-5,-12,-1,1
728,-1,-7,-12,3,-6,-14,-2,0
729,-1,-7,-15,3,-7,-16,-3,-1
730,-1,-7,-18,3,-7,-19,-4,-2
731,-1,-6,-20,3,-6,-20,-4,-2
732,-1,-5,-21,3,-6,-19,-5,-2
733,0,-4,-20,3,-5,-16,-4,-2
734,1,-3,-20,4,-4,-14,-4,-1
735,2,-1,-21,5,-3,-14,-3,1
736,2,2,-22,6,-1,-16,-1,2
737,3,4,-24,6,0,-17,0,3
738,3,5,-27,7,1,-16,1,4
739,3,6,-30,7,1,-13,2,5
740,2,6,-31,6,0,-9,1,5
741,1,5,-30,6,-1,-4,0,4
742,-1,4,-28,5,-2,2,-1,4
743,-3,3,-27,4,-3,5,-2,4
744,-4,2,-26,3,-3,7,-3,3
745,-5,1,-24,2,-4,7,-4,2
746,-7,-1,-23,1,-4,8,-6,2
747,-8,-3,-22,-1,-5,10,-7,0
748,-9,-5,-20,-2,-6,12,-8,-1
749,-9,-6,-20,-4,-6,13,-8,-2
750,-9,-8,-21,-4,-6,12,-9,-3
751,-9,-9,-22,-5,-6,12,-9,-4
752,-9,-10,-22,-4,-5,12,-9,-4
753,-8,-10,-22,-4,-5,11,-9,-4
754,-8,-9,-23,-4,-4,9,-8,-4
755,-8,-7,-25,-3,-4,6,-8,-4
756,-7,-5,-26,-3,-4,3,-7,-4
757,-7,-3,-26,-3,-3,-2,-6,-4
758,-7,-1,-26,-3,-3,-7,-6,-4
759,-6,1,-26,-3,-2,-12,-7,-4
760,-6,3,-26,-3,-1,-17,-7,-3
761,-6,4,-25,-3,0,-21,-8,-2
762,-6,6,-23,-3,1,-21,-8,-1
763,-6,7,-19,-4,2,-16,-8,0
764,-7,7,-14,-4,2,-9,-9,1
765,-7,7,-11,-4,2,-4,-10,2
766,-7,6,-8,-5,2,-3,-10,2
767,-7,4,-7,-5,2,-2,-12,2
768,-7,2,-6,-6,1,-3,-12,1
769,-7,0,-6,-7,0,-6,-13,-1
770,-6,-3,-8,-8,-1,-13,-13,-2
771,-5,-5,-11,-8,-2,-24,-13,-2
772,-4,-7,-16,-8,-3,-37,-12,-2
773,-3,-7,-20,-8,-3,-47,-11,-1
774,-3,-6,-24,-8,-3,-54,-10,1
775,-3,-5,-26,-8,-4,-56,-9,2
776,-3,-3,-27,-8,-4,-54,-8,2
777,-2,-2,-27,-7,-4,-48,-8,2
778,-2,-1,-25,-5,-4,-42,-8,2
779,-1,0,-24,-4,-4,-36,-8,2
780,-1,1,-21,-3,-4,-28,-8,2
781,0,2,-18,-3,-3,-19,-7,2
782,0,3,-16,-2,-3,-12,-6,2
783,1,5,-16,-1,-2,-9,-5,2
784,2,6,-17,-1,-1,-8,-4,3
785,3,7,-19,0,0,-10,-3,3
786,4,9,-22,1,1,-18,-1,4
787,5,9,-26,1,1,-27,-1,5
788,5,9,-27,1,1,-30,-1,5
789,4,8,-25,0,0,-27,-3,5
790,2,7,-23,-1,-1,-26,-4,3
791,1,5,-21,-2,-1,-26,-5,2
792,-1,3,-20,-2,-1,-27,-5,1
793,-2,2,-20,-2,-1,-29,-4,-1
794,-2,0,-20,-1,-1,-32,-3,-2
795,-1,-2,-20,1,-1,-33,-2,-2
796,0,-3,-19,1,-1,-30,-1,-3
797,1,-4,-18,1,-1,-26,-1,-3
798,2,-4,-18,1,-2,-24,-1,-4
799,2,-4,-19,1,-2,-24,-1,-4
800,2,-3,-20,1,-2,-21,-2,-3
801,2,-2,-19,0,-2,-18,-2,-2
802,3,-1,-18,1,-2,-17,-3,-1
803,4,-1,-18,1,-2,-19,-3,1
804,5,0,-18,2,-1,-22,-3,2
805,6,1,-17,3,1,-24,-1,3
806,7,2,-16,4,2,-23,1,4
807,7,3,-13,5,2,-20,2,5
808,7,5,-9,5,3,-12,3,6
809,7,6,-4,6,3,-4,4,6
810,8,6,0,7,4,5,4,7
811,8,6,3,7,4,12,3,7
812,7,5,5,6,5,17,2,6
813,7,3,6,5,5,21,0,5
814,7,1,7,3,6,21,-1,4
815,7,-2,7,3,6,17,-1,2
816,6,-4,7,2,6,12,-1,1
817,6,-6,6,2,6,7,-1,0
818,7,-8,5,2,5,3,-1,-1
819,7,-10,5,1,4,3,-1,-2
820,7,-11,6,0,3,8,-1,-3
821,7,-11,7,0,2,15,0,-4
822,7,-10,7,0,0,20,1,-4
823,7,-9,6,0,-1,21,1,-5
824,7,-8,5,0,-2,23,2,-4
825,8,-7,4,1,-2,27,2,-4
826,10,-5,4,2,-2,30,3,-3
827,11,-3,4,3,0,30,4,-1
828,13,-1,4,3,1,28,6,1
829,14,1,3,4,3,27,7,2
830,14,3,3,4,3,27,8,3
831,13,6,2,4,4,26,9,4
832,13,8,1,4,4,24,9,6
833,12,9,0,5,3,26,10,7
834,11,10,0,5,3,28,10,7
835,11,10,0,5,2,27,10,7
836,10,9,-2,5,2,22,11,7
837,9,8,-3,5,2,17,11,7
838,8,5,-5,6,1,10,11,6
839,8,2,-7,6,0,2,11,5
840,8,-2,-7,6,-2,-3,10,3
841,8,-5,-5,5,-3,-1,8,1
842,6,-8,-2,4,-5,4,6,-1
843,5,-10,0,3,-5,8,4,-3
844,4,-10,1,3,-5,9,3,-4
845,4,-10,1,3,-5,7,3,-5
846,4,-9,0,4,-4,6,3,-5
847,4,-8,1,5,-3,7,3,-4
848,4,-7,3,5,-3,11,4,-4
849,4,-6,6,5,-4,18,4,-4
850,3,-4,8,5,-5,25,5,-4
851,3,-3,9,5,-6,28,5,-3
852,3,-1,8,5,-6,29,5,-3
853,5,1,6,5,-5,27,6,-2
854,6,2,5,6,-4,25,7,0
855,7,3,5,7,-3,24,7,2
856,7,4,7,7,-1,25,7,4
857,7,6,9,7,1,29,6,5
858,7,7,12,7,1,33,6,5
859,6,7,16,6,2,35,6,5
860,6,6,19,6,2,34,6,5
861,5,5,21,6,2,28,5,5
862,4,3,22,5,2,21,5,4
863,3,1,22,4,1,13,4,3
864,2,-2,21,3,1,8,4,1
865,2,-3,21,3,-1,5,5,0
866,2,-5,20,3,-2,4,6,-2
867,3,-6,18,4,-3,2,6,-3
868,3,-7,16,4,-4,-2,7,-4
869,3,-7,13,5,-4,-10,7,-5
870,3,-8,8,5,-5,-19,7,-5
871,3,-8,3,5,-5,-27,7,-6
872,4,-7,-2,6,-4,-34,8,-6
873,4,-7,-6,7,-4,-40,8,-5
874,5,-6,-9,8,-4,-44,8,-5
875,6,-6,-11,9,-3,-47,8,-4
876,6,-5,-10,9,-2,-44,7,-3
877,7,-4,-5,9,-2,-32,6,-2
878,7,-2,2,9,-1,-17,6,0
879,7,0,8,9,0,-4,6,1
880,7,2,13,9,1,5,7,3
881,7,5,15,9,3,10,8,4
882,7,6,16,9,4,12,9,4
883,7,7,16,9,4,13,10,4
884,6,7,15,8,4,12,10,4
885,5,6,14,7,3,9,11,3
886,4,4,14,6,1,4,10,1
887,3,1,14,4,0,-1,9,-1
888,2,-2,14,3,-1,-4,8,-3
889,2,-5,14,2,-2,-5,7,-4
890,2,-7,12,1,-3,-6,7,-6
891,2,-8,9,1,-4,-9,6,-7
892,2,-9,4,1,-5,-14,6,-8
893,2,-9,0,1,-6,-20,6,-8
894,3,-10,-4,1,-6,-24,6,-9
895,3,-9,-4,2,-6,-23,5,-9
896,3,-9,-3,3,-6,-20,5,-9
897,2,-8,-2,4,-6,-17,5,-8
898,2,-7,0,4,-5,-12,4,-7
899,1,-5,1,3,-5,-6,3,-6
900,0,-4,3,2,-4,0,3,-5
901,-1,-2,2,1,-3,5,2,-3
902,-1,1,1,1,-2,6,2,-1
903,-1,4,0,2,0,6,2,1
904,-2,7,0,3,1,5,3,3
905,-2,8,2,3,2,6,3,4
906,-1,8,4,4,3,8,3,5
907,-1,6,8,4,3,11,2,5
908,-2,4,10,3,3,15,2,4
909,-2,1,12,3,3,17,1,3
910,-3,-2,13,1,3,19,1,1
911,-4,-5,15,-1,2,22,0,-1
912,-4,-8,16,-2,1,26,-1,-3
913,-4,-10,17,-4,-1,29,-1,-5
914,-5,-12,16,-5,-2,30,-2,-7
915,-5,-12,14,-6,-4,27,-2,-8
916,-6,-11,11,-6,-4,23,-2,-8
917,-6,-8,7,-6,-5,19,-1,-7
918,-6,-6,4,-5,-5,13,0,-6
919,-5,-3,1,-5,-5,8,1,-5
920,-4,-1,-2,-4,-5,5,2,-4
921,-3,0,-4,-4,-5,3,2,-3
922,-2,1,-4,-3,-4,4,2,-3
923,-2,0,-3,-3,-4,8,1,-3
924,-2,-1,-1,-3,-3,12,1,-4
925,-1,-1,-1,-3,-2,14,1,-4
926,1,-1,-2,-2,-1,13,1,-3
927,2,0,-2,0,0,10,2,-1
928,4,1,-1,2,1,10,3,2
929,6,1,2,3,2,13,3,4
930,6,0,5,3,4,19,2,6
931,5,-1,10,2,5,25,1,6
932,4,-2,14,1,6,31,-1,6
933,2,-3,17,0,5,35,-2,5
934,1,-5,18,-1,4,37,-2,3
935,-1,-6,18,-2,1,39,-2,0
936,-1,-8,16,-4,-1,38,-2,-2
937,-2,-10,12,-5,-3,33,-2,-3
938,-2,-11,8,-6,-4,26,-3,-4
939,-1,-11,5,-6,-5,22,-2,-5
940,-1,-11,4,-5,-6,23,-2,-6
941,-2,-10,6,-4,-7,28,-1,-6
942,-2,-9,7,-3,-7,33,0,-6
943,-2,-7,7,-2,-7,35,1,-5
944,-3,-5,7,-1,-7,32,2,-4
945,-2,-3,5,0,-6,28,3,-3
946,-2,-1,5,1,-5,30,3,-2
947,-1,0,6,1,-4,34,4,-1
948,1,1,7,2,-4,36,5,-1
949,2,3,7,3,-3,35,6,1
950,3,4,7,5,-3,30,6,2
951,4,5,9,6,-2,26,6,3
952,4,5,12,7,-1,23,5,4
953,3,5,16,7,1,24,4,5
954,3,5,20,7,2,27,3,6
955,2,4,23,6,3,28,2,6
956,1,4,25,6,4,27,1,6
957,0,3,27,6,4,27,0,6
958,-2,3,30,5,4,30,-1,6
959,-3,1,32,4,3,35,-1,5
960,-4,-1,33,3,3,35,-1,4
961,-4,-2,32,2,2,30,-1,4
962,-3,-3,29,2,0,23,-1,3
963,-3,-3,26,0,-1,19,-1,3
964,-4,-2,24,-1,-2,19,-1,2
965,-5,-1,23,-3,-2,22,-1,2
966,-6,0,23,-5,-2,27,-2,1
967,-7,1,24,-6,-2,31,-3,1
968,-7,2,25,-7,-1,33,-4,1
969,-6,3,25,-6,-1,31,-3,2
970,-4,5,23,-5,0,26,-2,4
971,-2,6,20,-3,1,19,0,5
972,0,8,18,-1,2,13,1,6
973,1,8,16,1,3,10,2,7
974,2,8,17,1,3,10,2,6
975,1,8,20,0,3,14,1,6
976,1,7,22,-1,3,18,0,5
977,1,6,23,-1,3,19,-1,6
978,1,6,23,-1,4,17,-1,6
979,1,5,23,-1,4,14,-1,7
980,1,5,24,0,3,12,-1,7
981,0,4,26,0,3,14,-1,7
982,-1,3,28,1,2,19,-2,6
983,-1,2,29,1,1,22,-2,5
984,-2,0,27,1,-1,22,-2,3
985,-2,-2,25,0,-2,20,-3,2
986,-3,-3,22,-1,-4,17,-3,0
987,-3,-4,20,-2,-5,16,-4,-2
988,-4,-5,17,-3,-7,14,-4,-3
989,-4,-5,14,-3,-8,12,-4,-4
990,-4,-4,12,-3,-8,11,-3,-5
991,-3,-3,11,-2,-8,9,-3,-5
992,-2,-2,10,-1,-7,6,-2,-4
993,-1,0,9,0,-6,3,-2,-3
994,0,2,9,1,-4,2,-1,-2
995,2,4,10,2,-3,3,0,1
996,3,5,11,2,-1,7,1,3
997,3,5,13,2,-1,12,1,5
998,3,5,15,2,0,17,1,7
999,3,5,18,1,0,20,0,9
1000,1,5,21,0,0,21,-1,10
1001,-1,5,22,0,1,19,-2,11
1002,-2,5,23,0,1,14,-3,11
1003,-3,4,22,0,1,9,-3,11
1004,-3,2,20,1,0,6,-3,11
1005,-3,0,20,1,-1,5,-3,9
1006,-4,-1,19,0,-2,8,-3,8
1007,-5,-2,20,-2,-3,13,-4,7
1008,-7,-3,20,-3,-4,18,-5,6
1009,-8,-2,19,-4,-4,19,-6,6
1010,-8,-2,18,-5,-4,19,-7,5
1011,-7,-1,15,-5,-5,17,-6,5
1012,-6,-2,13,-5,-5,17,-5,4
1013,-4,-2,12,-5,-4,19,-4,3
1014,-3,-2,10,-5,-4,18,-3,3
1015,-2,-1,7,-4,-3,15,-2,2
1016,-2,0,5,-4,-2,12,-1,3
1017,-2,2,4,-3,-2,13,-1,3
1018,-2,3,3,-2,-2,16,0,2
1019,-1,4,4,-1,-2,18,1,2
1020,-1,6,5,1,-1,18,2,2
1021,0,8,6,3,0,16,3,3
1022,0,10,6,4,1,13,4,4
1023,-1,12,7,5,2,13,4,5
1024,-1,13,8,5,2,16,3,6
1025,-2,12,11,4,2,22,3,6
1026,-1,11,13,3,3,27,2,7
1027,-1,8,16,3,3,30,1,7
1028,0,6,17,2,3,30,1,7
1029,1,4,17,2,3,27,1,6
1030,1,2,15,2,3,25,1,5
1031,0,-1,13,2,1,22,1,4
1032,0,-2,10,2,0,17,1,2
1033,1,-4,6,2,-1,11,1,1
1034,1,-5,2,1,-3,7,1,-1
1035,2,-6,-1,0,-4,3,1,-3
1036,2,-7,-5,0,-5,-3,2,-4
1037,2,-7,-9,0,-5,-12,2,-5
1038,2,-7,-13,0,-6,-21,2,-6
1039,1,-7,-15,0,-7,-25,2,-7
1040,1,-7,-13,0,-7,-22,2,-7
1041,1,-7,-10,1,-7,-15,2,-7
1042,3,-6,-5,2,-7,-4,3,-7
1043,4,-5,0,3,-6,8,4,-5
1044,6,-2,3,5,-5,17,5,-3
1045,7,1,4,7,-4,21,6,-1
1046,8,4,3,8,-3,22,7,2
1047,9,6,3,8,-3,22,7,3
1048,9,7,3,8,-2,22,7,4
1049,9,7,4,6,-1,24,7,4
1050,8,7,6,5,1,24,6,5
1051,8,6,7,3,2,24,5,6
1052,7,5,8,2,3,22,4,6
1053,6,5,9,2,3,19,3,6
1054,5,4,9,2,3,17,3,6
1055,4,4,10,2,2,16,3,5
1056,3,3,10,2,2,15,3,5
1057,3,1,10,2,2,12,3,4
1058,2,0,8,2,1,9,2,3
1059,1,-1,6,1,1,5,2,1
1060,0,-2,4,1,0,1,2,0
1061,-2,-2,2,0,0,-2,2,-2
1062,-3,-3,3,-1,-1,0,2,-4
1063,-4,-4,5,-1,-1,5,2,-6
1064,-3,-5,6,0,-1,9,2,-6
1065,-1,-5,5,0,0,7,3,-6
1066,1,-5,2,1,2,2,3,-4
1067,4,-4,-1,2,3,-2,5,-2
1068,7,-2,-2,3,4,-3,6,1
1069,9,1,-3,4,5,-1,7,3
1070,10,4,-3,4,5,3,8,6
1071,11,7,-2,5,5,9,8,7
1072,12,9,-2,6,5,14,9,8
1073,12,10,-2,7,4,17,10,8
1074,12,10,-2,8,3,19,11,7
1075,11,9,0,8,3,24,11,7
1076,9,7,2,7,2,30,11,6
1077,7,5,4,6,1,30,10,5
1078,6,2,3,6,0,23,9,4
1079,5,-1,1,5,0,12,8,3
1080,3,-5,-1,5,-1,2,6,2
1081,2,-8,0,4,-3,-3,4,0
1082,0,-10,2,2,-4,-3,3,-1
1083,-1,-12,3,0,-5,1,1,-3
1084,-2,-13,4,-2,-6,6,-1,-4
1085,-2,-13,4,-4,-6,8,-2,-5
1086,-2,-12,1,-5,-6,7,-2,-5
1087,-1,-11,-3,-5,-5,1,-2,-5
1088,-1,-10,-8,-5,-5,-5,-2,-4
1089,0,-9,-10,-5,-5,-9,-2,-4
1090,1,-8,-12,-4,-5,-10,-1,-3
1091,1,-8,-11,-4,-6,-8,-1,-3
1092,1,-7,-8,-5,-6,-3,-1,-4
1093,0,-7,-4,-6,-6,3,-3,-4
1094,-1,-6,-2,-7,-5,7,-4,-4
1095,-2,-4,-2,-8,-5,9,-6,-4
1096,-2,-3,-3,-10,-4,8,-7,-5
1097,-2,-2,-4,-10,-4,6,-7,-5
1098,-1,-1,-6,-10,-3,4,-7,-5
1099,1,-1,-7,-10,-2,3,-6,-6
1100,2,-1,-8,-9,-1,1,-5,-6
1101,2,-1,-8,-8,0,0,-4,-6
1102,3,-1,-8,-7,0,1,-3,-5
1103,3,1,-6,-5,0,3,-2,-3
1104,3,2,-4,-4,0,8,-1,-1
1105,3,3,-1,-3,0,14,-1,1
1106,3,3,2,-3,1,18,0,2
1107,3,3,2,-3,1,18,0,3
1108,2,3,1,-3,1,15,-1,3
1109,2,1,-1,-3,2,10,-1,2
1110,1,0,-4,-4,1,6,-2,1
1111,-1,-1,-6,-5,1,5,-2,1
1112,-2,-2,-6,-6,0,7,-3,-1
1113,-4,-2,-6,-7,-1,10,-3,-1
1114,-4,-1,-6,-8,-1,10,-4,-2
1115,-4,-1,-6,-8,-1,8,-4,-3
1116,-4,0,-5,-8,-1,7,-4,-2
1117,-4,1,-4,-8,-1,8,-4,-2
1118,-3,1,-2,-7,0,12,-4,-1
1119,-3,2,1,-6,1,15,-4,0
1120,-2,3,3,-5,2,18,-4,1
1121,-1,4,5,-3,3,21,-3,3
1122,0,5,7,-1,5,22,-3,4
1123,1,6,8,0,6,23,-2,6
1124,2,7,8,1,6,24,-2,7
1125,2,8,9,1,7,23,-2,7
1126,2,8,8,1,6,21,-3,7
1127,2,8,8,1,7,17,-3,7
1128,1,7,6,0,7,14,-3,6
1129,1,5,5,0,7,12,-3,5
1130,0,3,5,0,6,12,-2,4
1131,0,1,5,0,5,12,-1,3
1132,0,-1,6,1,4,13,0,2
1133,0,-2,8,1,3,17,1,1
1134,0,-3,10,1,1,22,1,0
1135,-1,-5,11,0,-1,28,1,-2
1136,-1,-6,11,-1,-2,33,1,-4
1137,-2,-7,10,-3,-4,36,0,-5
1138,-2,-8,10,-5,-6,39,0,-7
1139,-3,-8,10,-6,-7,40,-1,-8
1140,-3,-9,10,-7,-8,41,-2,-9
1141,-2,-9,10,-7,-8,42,-2,-9
1142,-2,-9,11,-7,-8,44,-2,-9
1143,-1,-8,12,-7,-6,50,-1,-8
1144,0,-6,15,-7,-5,60,0,-8
1145,0,-5,19,-7,-3,75,0,-8
1146,0,-4,24,-7,-3,92,0,-7
1147,0,-3,27,-7,-3,108,-2,-7
1148,1,-3,29,-6,-4,120,-3,-6
1149,1,-2,29,-6,-4,128,-3,-5
1150,1,-2,29,-5,-4,132,-3,-4
1151,1,-2,29,-5,-2,133,-2,-3
1152,1,-1,27,-4,-1,131,-2,-2
1153,1,0,25,-4,1,125,-1,-1
1154,1,1,23,-3,2,117,0,1
1155,1,1,19,-2,3,107,0,2
1156,1,2,16,-1,3,97,0,3
1157,2,3,13,-1,4,88,1,4
1158,2,2,11,-1,5,80,1,4
1159,2,2,8,-2,5,74,0,5
1160,2,1,5,-2,4,68,0,5
1161,2,0,2,-2,3,61,0,4
1162,2,-1,-1,-1,1,56,0,4
1163,2,-2,-2,-1,-1,53,0,2
1164,1,-4,-2,-1,-2,50,1,1
1165,0,-4,-3,0,-2,44,1,0
1166,-1,-5,-4,0,-2,38,2,-1
1167,-2,-4,-6,1,-2,32,3,-2
1168,-2,-3,-8,2,-2,27,4,-2
1169,-1,-2,-10,4,-2,23,6,-3
1170,1,-1,-13,6,-2,17,8,-2
1171,3,0,-17,8,-1,10,9,-2
1172,4,0,-20,9,-1,4,10,-2
1173,5,0,-22,10,0,-2,10,-3
1174,5,-1,-22,9,1,-7,9,-3
1175,4,-1,-21,8,2,-9,8,-3
1176,2,-1,-18,6,3,-8,7,-3
1177,1,-1,-16,5,4,-7,6,-2
1178,-1,-1,-13,3,4,-9,6,-1
1179,-2,-1,-12,2,5,-12,5,0
1180,-2,-1,-11,0,4,-13,4,0
1181,-2,-2,-10,-2,4,-12,2,0
1182,-1,-2,-12,-3,3,-16,2,-1
1183,0,-3,-17,-4,3,-24,1,-1
1184,1,-3,-22,-3,3,-33,1,-1
1185,2,-4,-26,-3,2,-39,1,-1
1186,2,-4,-29,-3,2,-44,1,-1
1187,1,-4,-31,-3,2,-45,0,-2
1188,-1,-5,-32,-3,1,-42,-1,-3
1189,-2,-5,-32,-4,0,-40,-2,-4
1190,-3,-6,-32,-4,-1,-40,-4,-5
1191,-3,-6,-33,-4,-2,-42,-4,-6
1192,-3,-6,-34,-4,-3,-46,-4,-6
1193,-3,-6,-35,-3,-4,-47,-5,-6
1194,-4,-5,-36,-4,-5,-48,-5,-6
1195,-4,-4,-36,-4,-5,-49,-5,-6
1196,-5,-3,-35,-4,-5,-50,-4,-6
1197,-5,-2,-35,-5,-5,-53,-4,-6
1198,-6,-2,-35,-5,-5,-57,-4,-7
1199,-6,-2,-36,-5,-4,-64,-5,-7
1200,-6,-3,-39,-6,-5,-70,-5,-6
1201,-6,-4,-40,-6,-5,-75,-6,-6
1202,-7,-4,-39,-6,-5,-75,-6,-6
1203,-8,-4,-33,-6,-6,-68,-6,-6
1204,-8,-4,-25,-6,-6,-56,-5,-6
1205,-7,-4,-16,-5,-5,-43,-5,-5
1206,-6,-4,-11,-4,-5,-33,-4,-5
1207,-5,-4,-9,-3,-5,-27,-3,-4
1208,-4,-3,-10,-2,-5,-27,-2,-4
1209,-3,-3,-15,-1,-5,-31,-1,-4
1210,-2,-4,-20,-1,-5,-35,0,-4
1211,-1,-4,-23,-1,-6,-37,1,-4
1212,0,-4,-25,-1,-6,-40,1,-4
1213,1,-4,-28,-1,-6,-44,1,-4
1214,2,-3,-32,0,-5,-49,2,-4
1215,2,-3,-35,1,-5,-52,2,-3
1216,3,-2,-38,2,-4,-55,3,-3
1217,5,-1,-39,4,-4,-57,4,-2
1218,6,0,-38,5,-4,-56,5,-1
1219,6,1,-36,6,-3,-53,6,1
1220,6,1,-33,7,-3,-50,6,2
1221,6,2,-30,6,-2,-48,6,2
1222,4,2,-27,6,-1,-44,5,2
1223,3,2,-24,5,-1,-38,4,1
1224,2,2,-22,5,-1,-33,3,1
1225,1,2,-19,4,-1,-29,2,1
1226,0,2,-17,4,0,-26,2,1
1227,0,2,-14,4,1,-24,1,1
1228,0,2,-13,3,1,-23,1,2
1229,0,2,-13,3,1,-24,1,2
1230,0,2,-14,3,1,-23,1,2
1231,-1,2,-14,2,0,-18,1,2
1232,-2,3,-14,2,-1,-12,0,2
1233,-3,4,-15,1,-2,-10,0,2
1234,-3,5,-17,2,-2,-13,0,3
1235,-4,5,-19,2,-3,-19,0,3
1236,-5,5,-21,2,-3,-24,0,3
1237,-6,5,-21,2,-4,-26,-1,2
1238,-6,4,-21,2,-4,-21,-2,1
1239,-6,3,-20,1,-5,-12,-3,0
1240,-6,2,-19,-1,-5,-5,-4,-1
1241,-6,2,-20,-1,-5,-3,-4,-1
1242,-6,1,-22,0,-4,-6,-4,-1
1243,-7,1,-24,2,-4,-13,-4,-1
1244,-8,0,-27,3,-4,-19,-4,-2
1245,-8,-1,-30,4,-4,-23,-3,-2
1246,-8,-2,-33,4,-3,-27,-2,-2
1247,-7,-2,-36,5,-3,-31,-1,-2
1248,-6,-2,-38,4,-2,-34,-1,-1
1249,-5,-2,-39,4,-1,-35,0,0
1250,-4,-1,-40,4,-1,-36,0,1
1251,-3,-1,-41,5,0,-37,1,2
1252,-3,1,-41,5,0,-38,2,2
1253,-2,1,-42,5,1,-37,3,2
1254,-1,2,-41,5,1,-37,4,2
1255,0,4,-41,5,1,-38,4,2
1256,1,5,-41,4,1,-38,5,2
1257,3,6,-41,4,1,-37,5,2
1258,4,6,-40,3,0,-36,5,2
1259,5,6,-40,3,0,-34,6,2
1260,5,6,-38,3,0,-30,6,1
1261,4,7,-34,2,0,-25,6,1
1262,3,7,-32,1,0,-22,5,1
1263,2,7,-30,-1,1,-21,4,0
1264,-1,7,-28,-2,1,-19,3,0
1265,-2,7,-26,-2,0,-15,2,0
1266,-4,6,-24,-3,-1,-10,1,-1
1267,-4,4,-22,-3,-1,-7,0,-1
1268,-5,3,-20,-3,-2,-5,1,-2
1269,-4,1,-18,-3,-3,-4,1,-3
1270,-4,-1,-16,-3,-3,-4,1,-4
1271,-3,-2,-15,-2,-3,-6,1,-4
1272,-2,-3,-14,-2,-3,-9,2,-4
1273,-2,-2,-13,-1,-3,-10,3,-3
1274,-2,-1,-11,-1,-3,-9,4,-3
1275,-2,1,-10,0,-2,-8,4,-2
1276,-2,2,-11,0,-2,-11,5,-1
1277,-2,4,-13,0,-1,-15,5,1
1278,-2,5,-14,0,-1,-18,5,2
1279,-1,5,-14,0,-1,-21,5,4
1280,1,5,-12,0,-1,-21,4,5
1281,2,5,-10,0,-2,-18,3,6
1282,3,5,-8,0,-3,-14,3,6
1283,4,5,-6,1,-3,-13,3,6
1284,4,6,-5,1,-3,-17,4,6
1285,4,6,-4,1,-3,-21,4,6
1286,3,5,-1,1,-3,-23,4,5
1287,2,5,4,1,-3,-18,3,4
1288,1,4,9,1,-2,-13,2,4
1289,0,4,12,0,-1,-13,1,4
1290,-1,3,13,0,0,-16,0,4
1291,-2,2,15,0,1,-18,-1,4
1292,-2,0,17,-1,1,-18,-2,3
1293,-2,-1,18,-1,0,-20,-3,3
1294,-2,-3,17,-1,-1,-25,-4,2
1295,-2,-3,15,0,-1,-31,-4,2
1296,-2,-3,14,0,-1,-35,-5,2
1297,-3,-4,14,0,-1,-36,-5,2
1298,-4,-4,14,-1,-1,-34,-5,2
1299,-4,-4,15,-2,-1,-29,-5,2
1300,-4,-4,15,-2,0,-24,-4,2
1301,-4,-3,14,-3,1,-22,-3,3
1302,-3,-2,12,-4,2,-23,-2,4
1303,-2,-1,11,-4,3,-23,-1,4
1304,-1,1,11,-5,3,-19,-1,4
1305,0,1,11,-6,3,-14,-1,4
1306,2,2,10,-6,3,-14,0,4
1307,3,2,7,-6,2,-18,0,4
1308,4,2,5,-5,2,-23,0,4
1309,4,3,3,-4,1,-25,0,4
1310,3,3,1,-4,1,-26,1,3
1311,3,4,-1,-4,1,-28,1,2
1312,2,4,-1,-4,0,-31,1,2
1313,2,3,-1,-4,-1,-31,2,1
1314,1,2,2,-4,-2,-28,2,0
1315,0,1,5,-4,-2,-22,2,-1
1316,-1,-1,9,-5,-2,-16,2,-2
1317,-2,-3,12,-5,-1,-10,1,-3
1318,-3,-5,15,-5,-1,-5,0,-4
1319,-3,-7,17,-5,-2,-1,0,-5
1320,-3,-8,20,-6,-2,4,-1,-6
1321,-3,-9,22,-6,-3,8,-1,-6
1322,-3,-9,22,-5,-3,11,-1,-6
1323,-3,-8,21,-4,-3,12,0,-5
1324,-2,-8,20,-4,-2,13,2,-4
1325,-1,-7,20,-3,-2,16,3,-4
1326,1,-5,19,-2,-1,18,5,-3
1327,3,-3,17,-1,0,17,6,-2
1328,5,0,15,0,1,15,7,0
1329,7,4,12,2,2,13,8,2
1330,8,7,10,3,3,12,10,4
1331,9,10,8,4,4,13,11,6
1332,10,12,7,4,4,15,12,7
1333,10,13,7,4,3,17,12,7
1334,10,13,6,3,2,18,11,7
1335,9,13,5,2,1,16,10,7
1336,7,12,4,1,1,12,9,6
1337,6,10,4,1,1,6,8,5
1338,5,7,4,0,1,1,8,4
1339,4,3,6,0,1,-5,6,4
1340,3,0,7,-1,1,-9,5,3
1341,1,-2,9,-2,0,-10,3,2
1342,0,-4,11,-3,-1,-6,2,1
1343,-3,-5,12,-4,-2,0,1,-1
1344,-4,-6,12,-5,-3,2,-1,-2
1345,-6,-7,10,-6,-4,0,-1,-4
1346,-6,-8,8,-7,-5,-2,-2,-5
1347,-6,-8,6,-8,-6,-3,-4,-7
1348,-5,-9,5,-9,-7,-1,-5,-8
1349,-4,-10,4,-9,-7,0,-6,-9
1350,-3,-10,3,-9,-7,1,-7,-10
1351,-3,-9,2,-9,-7,-1,-6,-9
1352,-2,-8,0,-8,-7,-5,-5,-9
1353,-1,-7,-1,-7,-6,-7,-4,-7
1354,-1,-5,-1,-5,-5,-5,-3,-5
1355,0,-3,-1,-4,-4,-2,-2,-4
1356,2,0,-2,-3,-3,-1,-1,-2
1357,2,3,-4,-2,-2,-2,0,0
1358,3,5,-8,-2,0,-6,1,2
1359,2,8,-12,-2,1,-13,2,4
1360,2,10,-17,-2,2,-22,3,5
1361,1,11,-22,-2,3,-31,3,6
1362,0,11,-27,-3,2,-42,2,6
1363,-1,10,-30,-4,2,-52,1,6
1364,-1,7,-30,-4,1,-58,0,5
1365,-2,4,-26,-5,0,-57,-2,4
1366,-2,1,-20,-5,-2,-48,-3,3
1367,-3,-1,-13,-5,-3,-36,-3,2
1368,-3,-2,-8,-5,-4,-26,-3,0
1369,-3,-3,-5,-4,-4,-22,-3,-1
1370,-4,-4,-4,-5,-4,-22,-3,-2
1371,-5,-5,-5,-6,-4,-23,-4,-3
1372,-5,-7,-7,-7,-4,-26,-5,-4
1373,-5,-8,-7,-8,-4,-27,-7,-5
1374,-5,-9,-7,-9,-4,-28,-8,-5
1375,-4,-9,-7,-10,-4,-27,-8,-4
1376,-3,-9,-6,-9,-4,-24,-7,-4
1377,-3,-7,-5,-8,-2,-21,-6,-3
1378,-3,-6,-4,-8,-1,-18,-5,-3
1379,-3,-4,-3,-7,0,-14,-5,-3
1380,-3,-2,-3,-7,0,-12,-4,-3
1381,-3,-1,-4,-6,1,-12,-3,-3
1382,-2,1,-4,-6,1,-13,-2,-2
1383,-1,3,-5,-5,1,-16,0,0
1384,0,6,-8,-5,1,-17,1,2
1385,0,8,-9,-4,1,-17,2,3
1386,0,9,-11,-3,0,-15,3,4
1387,-1,10,-11,-3,0,-11,3,4
1388,-2,10,-11,-3,-1,-6,3,3
1389,-3,10,-10,-3,-2,-3,2,2
1390,-4,8,-8,-4,-2,-1,1,0
1391,-5,5,-6,-6,-3,-2,-2,-2
1392,-6,2,-4,-7,-4,-2,-3,-4
1393,-7,-2,-2,-8,-4,-3,-5,-6
1394,-8,-4,0,-8,-4,-4,-5,-8
1395,-9,-6,2,-9,-4,-3,-5,-9
1396,-9,-7,4,-9,-3,-2,-5,-9
1397,-9,-7,5,-8,-3,-1,-4,-9
1398,-8,-6,5,-8,-2,1,-3,-8
1399,-7,-6,7,-9,-2,5,-3,-8
1400,-7,-5,9,-9,-2,10,-3,-7
1401,-7,-4,13,-8,-2,15,-3,-7
1402,-7,-3,15,-8,-1,18,-4,-6
1403,-7,-2,16,-7,-1,18,-3,-5
1404,-6,0,14,-5,1,15,-3,-4
1405,-5,2,12,-4,2,11,-3,-2
1406,-3,4,10,-2,3,7,-3,-1
1407,-3,5,10,-1,3,8,-3,0
1408,-2,7,11,-1,3,12,-2,1
1409,-3,9,12,-1,2,17,-1,1
1410,-3,10,12,-1,1,21,-1,2
1411,-3,11,11,-2,1,23,0,2
1412,-3,12,9,-3,1,23,-1,3
1413,-3,11,6,-4,1,20,-1,2
1414,-2,10,3,-5,0,13,-1,1
1415,-2,8,-2,-5,-1,3,-1,-1
1416,-3,6,-6,-5,-1,-9,-1,-2
1417,-4,4,-8,-6,-2,-18,-2,-3
1418,-7,1,-6,-7,-2,-21,-3,-5
1419,-9,-2,-1,-8,-2,-18,-5,-6
1420,-11,-4,5,-10,-3,-11,-7,-7
1421,-13,-6,9,-11,-3,-5,-8,-9
1422,-13,-8,12,-11,-3,-3,-9,-10
1423,-14,-9,12,-12,-3,-4,-10,-11
1424,-14,-8,12,-12,-2,-6,-10,-11
1425,-14,-7,11,-11,0,-8,-10,-10
1426,-14,-5,10,-11,1,-9,-9,-9
1427,-14,-3,10,-9,3,-8,-8,-8
1428,-14,1,10,-7,4,-6,-7,-7
1429,-13,3,10,-5,5,-4,-5,-5
1430,-11,5,9,-3,6,-4,-3,-4
1431,-9,7,8,-1,6,-6,0,-2
1432,-6,8,5,2,6,-10,3,0
1433,-2,10,1,5,7,-13,6,2
1434,2,12,-2,8,7,-14,9,3
1435,5,15,-4,10,7,-12,11,5
1436,6,19,-6,11,7,-10,13,7
1437,7,21,-7,11,7,-8,13,8
1438,7,21,-8,10,7,-7,13,8
1439,6,20,-8,9,7,-6,11,8
1440,5,17,-7,7,5,-4,9,7
1441,3,13,-6,4,4,-2,7,5
1442,1,9,-5,1,2,-2,5,3
1443,-1,6,-4,-1,1,-3,3,0
1444,-3,2,-3,-3,-1,-3,1,-3
1445,-5,-1,-1,-4,-3,-2,0,-6
1446,-7,-4,2,-5,-4,0,-1,-8
1447,-8,-6,4,-5,-5,5,-1,-9
1448,-8,-7,5,-5,-6,11,-2,-10
1449,-8,-7,5,-5,-5,16,-2,-9
1450,-7,-7,4,-4,-5,16,-2,-8
1451,-6,-6,2,-3,-3,14,-1,-7
1452,-4,-6,1,-1,-2,13,1,-6
1453,-3,-5,1,0,-1,13,2,-5
1454,-1,-4,1,2,0,13,4,-4
1455,0,-3,1,2,2,16,5,-2
1456,1,-1,2,3,3,21,6,-1
1457,1,2,2,4,4,25,7,1
1458,1,4,4,5,5,28,8,3
1459,2,7,4,6,6,31,9,6
1460,2,9,4,6,6,34,10,8
1461,3,11,5,7,7,39,11,10
1462,4,13,5,7,7,46,11,12
1463,4,15,6,7,7,54,11,12
1464,5,16,6,7,7,61,10,13
1465,4,16,7,6,6,66,8,12
1466,3,15,8,4,4,72,7,10
1467,2,13,10,2,2,77,5,8
1468,0,10,11,-1,0,78,3,6
1469,-2,8,11,-3,-2,74,1,4
1470,-3,5,10,-4,-3,68,-1,1
1471,-5,3,9,-5,-3,62,-2,-1
1472,-6,0,8,-5,-4,59,-3,-3
1473,-7,-2,10,-6,-4,61,-3,-5
1474,-8,-5,13,-6,-4,66,-4,-7
1475,-9,-7,17,-7,-4,72,-4,-7
1476,-9,-8,18,-7,-4,74,-5,-8
1477,-9,-8,18,-7,-3,70,-6,-7
1478,-8,-9,16,-7,-3,65,-6,-7
1479,-7,-9,15,-7,-2,64,-6,-7
1480,-7,-8,16,-7,-3,64,-6,-6
1481,-6,-8,17,-7,-3,67,-5,-6
1482,-6,-7,19,-7,-3,70,-5,-5
1483,-5,-5,20,-6,-3,75,-3,-4
1484,-4,-3,20,-4,-2,78,-2,-3
1485,-3,0,19,-2,-1,81,-1,-1
1486,-1,2,17,-1,0,80,0,1
1487,0,3,15,0,1,78,1,2
1488,2,5,13,0,2,76,1,3
1489,2,5,12,0,2,75,1,3
1490,3,6,11,-1,1,74,1,2
1491,2,6,12,-1,1,75,1,2
1492,2,5,13,-1,1,76,0,1
1493,2,4,14,0,0,76,0,1
1494,1,2,16,0,-1,76,-1,1
1495,0,-1,19,0,-1,78,-1,0
1496,-1,-3,23,-1,-1,82,-2,-1
1497,-2,-6,28,-2,-2,89,-2,-2
1498,-4,-8,34,-3,-3,99,-3,-4
1499,-6,-10,40,-4,-4,111,-4,-6
1500,-8,-12,45,-6,-5,123,-5,-7
1501,-9,-13,47,-7,-5,129,-6,-8
1502,-10,-14,47,-8,-6,131,-7,-9
1503,-10,-14,46,-8,-6,131,-8,-8
1504,-11,-13,46,-9,-5,131,-8,-8
1505,-11,-12,45,-8,-4,130,-8,-7
1506,-11,-10,44,-8,-3,129,-6,-6
1507,-10,-9,42,-7,-2,128,-5,-5
1508,-9,-7,39,-6,-1,125,-4,-4
1509,-7,-5,35,-5,0,121,-3,-3
1510,-6,-3,30,-4,1,116,-1,-2
1511,-4,-1,26,-3,2,113,0,-1
1512,-3,1,23,-2,2,111,1,1
1513,-1,2,22,-1,3,108,1,2
1514,0,3,20,-1,3,102,2,3
1515,1,4,18,1,3,94,3,4
1516,1,5,17,1,3,87,3,4
1517,2,5,16,2,3,83,4,4
1518,1,4,16,1,2,83,3,3
1519,0,2,17,1,1,82,2,1
1520,-2,-1,17,0,0,79,1,0
1521,-3,-3,16,-1,-1,75,-1,-1
1522,-5,-5,14,-1,-2,69,-3,-2
1523,-6,-7,11,-1,-3,62,-5,-4
1524,-8,-8,9,-1,-3,57,-5,-5
1525,-8,-9,9,-1,-3,56,-6,-6
1526,-7,-10,12,-1,-2,61,-5,-7
1527,-6,-10,16,-1,-2,69,-4,-8
1528,-5,-9,20,-1,-1,79,-3,-7
1529,-4,-8,23,-1,-1,89,-3,-6
1530,-3,-6,25,0,0,95,-2,-5
1531,-3,-5,25,1,1,97,-1,-4
1532,-2,-3,24,1,2,97,0,-3
1533,-2,-1,22,1,3,93,1,-3
1534,-2,1,20,2,4,88,2,-2
1535,-2,4,18,2,5,84,3,1
1536,-3,7,17,3,6,82,4,3
1537,-3,9,16,3,6,82,4,4
1538,-3,10,17,3,6,83,4,6
1539,-3,10,19,3,5,84,4,6
1540,-3,9,21,2,5,83,4,7
1541,-3,8,22,2,5,78,3,7
1542,-3,6,20,2,4,68,2,8
1543,-3,5,18,2,4,57,1,8
1544,-3,3,15,3,3,50,1,7
1545,-3,1,12,2,2,45,1,5
1546,-3,-1,9,2,1,38,1,3
1547,-3,-3,5,1,0,30,1,1
1548,-3,-5,2,2,-1,21,2,-2
1549,-4,-7,-2,2,-1,14,2,-4
1550,-4,-8,-5,3,-2,9,2,-5
1551,-4,-8,-8,4,-3,9,2,-5
1552,-4,-8,-10,4,-3,9,2,-5
1553,-4,-7,-12,4,-3,7,2,-4
1554,-3,-6,-15,4,-2,3,2,-3
1555,-3,-5,-17,5,-1,-3,3,-2
1556,-2,-3,-18,5,0,-8,3,0
1557,-2,-2,-17,6,1,-12,3,1
1558,-3,0,-17,7,1,-15,3,2
1559,-3,2,-16,8,1,-17,4,3
1560,-2,3,-16,8,1,-17,4,3
1561,-2,4,-15,7,1,-13,4,3
1562,-1,5,-13,7,0,-7,4,4
1563,-1,6,-12,7,1,-1,4,5
1564,-1,7,-11,7,1,2,4,5
1565,-1,8,-10,7,1,0,5,6
1566,-1,8,-11,7,1,-5,5,6
1567,0,8,-13,8,1,-11,5,6
1568,1,8,-16,7,2,-18,6,6
1569,2,8,-18,7,3,-27,7,6
1570,2,7,-20,6,3,-34,7,6
1571,2,6,-20,5,3,-38,6,5
1572,1,4,-20,4,3,-40,5,4
1573,0,1,-21,3,1,-41,4,3
1574,-1,-1,-23,1,-1,-45,2,1
1575,-2,-3,-26,0,-3,-48,2,-1
1576,-3,-3,-27,-1,-4,-50,1,-1
1577,-4,-3,-27,-2,-4,-53,1,-2
1578,-4,-3,-27,-2,-4,-56,1,-2
1579,-5,-2,-25,-3,-3,-57,-1,-2
1580,-5,-2,-23,-3,-2,-57,-2,-2
1581,-6,-2,-21,-3,-1,-57,-3,-2
1582,-6,-2,-19,-3,-1,-58,-3,-3
1583,-6,-2,-18,-3,0,-60,-3,-3
1584,-5,-2,-17,-3,0,-59,-3,-4
1585,-5,-2,-14,-3,-1,-55,-2,-4
1586,-4,-2,-11,-3,-1,-50,-2,-4
1587,-4,-1,-9,-3,-1,-43,-2,-4
1588,-4,0,-7,-3,-1,-37,-2,-3
1589,-4,1,-6,-3,1,-33,-2,-3
1590,-5,2,-7,-3,2,-34,-2,-2
1591,-5,3,-9,-3,3,-37,-1,0
1592,-5,4,-11,-3,5,-39,-1,1
1593,-4,4,-10,-2,5,-36,-1,3
1594,-3,4,-8,-2,5,-30,-2,3
1595,-3,3,-5,-3,5,-24,-2,3
1596,-3,1,-3,-3,4,-19,-3,2
1597,-4,-1,-3,-5,4,-16,-4,1
1598,-6,-2,-3,-6,4,-14,-5,-1
1599,-7,-3,-2,-7,4,-11,-6,-3
1600,-7,-4,-2,-7,4,-9,-6,-4
1601,-7,-5,-2,-7,3,-6,-6,-4
1602,-6,-5,-1,-6,2,-4,-6,-4
1603,-5,-6,0,-5,1,-1,-5,-4
1604,-4,-6,0,-3,1,2,-5,-3
1605,-2,-6,0,-2,2,2,-4,-3
1606,-1,-6,0,-2,2,2,-4,-3
1607,1,-6,0,-2,2,3,-3,-3
1608,1,-5,2,-2,2,7,-3,-3
1609,1,-4,4,-3,1,11,-3,-2
1610,-1,-2,7,-3,1,17,-4,-2
1611,-2,0,9,-3,0,21,-4,-1
1612,-2,2,10,-2,0,24,-4,0
1613,-2,2,11,-1,1,24,-3,0
1614,-2,2,10,-1,1,23,-3,0
1615,-1,1,11,0,1,23,-3,-1
1616,0,0,13,0,1,26,-2,-1
1617,1,-1,15,1,1,29,-2,-1
1618,1,-2,18,1,1,30,-2,0
1619,2,-2,19,1,2,31,-2,0
1620,2,-2,20,1,2,34,-1,0
1621,2,-2,20,1,2,36,0,-1
1622,2,-2,20,1,1,38,0,-2
1623,2,-2,19,0,-1,41,0,-2
1624,2,-2,18,-1,-2,42,0,-3
1625,2,-2,15,-3,-2,38,1,-4
1626,2,-2,10,-3,-2,29,1,-4
1627,1,-2,7,-4,-1,22,2,-5
1628,1,-3,5,-4,-1,18,3,-5
1629,1,-3,4,-4,-1,19,4,-6
1630,1,-4,5,-4,0,21,3,-6
1631,1,-4,6,-5,0,24,3,-6
1632,0,-4,6,-5,1,23,2,-6
1633,-1,-4,4,-5,2,18,1,-5
1634,-2,-3,2,-5,3,11,1,-5
1635,-3,-2,1,-5,3,7,0,-5
1636,-3,-2,0,-4,3,3,0,-5
1637,-3,-1,-2,-5,4,-3,-1,-5
1638,-2,-1,-4,-5,4,-11,-1,-4
1639,-2,-1,-7,-6,5,-20,-2,-4
1640,-1,0,-9,-6,6,-29,-2,-3
1641,-1,0,-11,-6,6,-36,-2,-2
1642,-1,0,-12,-5,6,-40,-2,-2
1643,0,0,-12,-5,6,-40,-2,-3
1644,1,0,-11,-4,6,-39,-2,-3
1645,2,0,-11,-4,5,-39,-2,-2
1646,2,1,-12,-3,6,-41,-1,-1
1647,2,1,-14,-3,5,-44,0,0
1648,2,1,-17,-2,5,-49,1,1
1649,2,1,-21,-2,4,-57,2,2
1650,2,1,-24,-2,2,-64,3,2
1651,2,1,-27,-2,0,-70,4,2
1652,2,1,-28,-2,-1,-73,4,1
1653,3,1,-28,-1,-2,-75,5,1
1654,3,0,-28,0,-2,-77,5,1
1655,3,0,-28,0,-2,-78,5,1
1656,3,-1,-27,1,-2,-77,6,0
1657,2,-2,-26,0,-3,-73,5,0
1658,2,-2,-26,0,-4,-71,5,-1
1659,2,-2,-26,0,-4,-72,5,-1
1660,2,-1,-28,0,-3,-78,5,-1
1661,2,1,-30,0,-2,-84,6,-1
1662,2,2,-32,1,1,-90,6,0
1663,2,4,-33,2,2,-94,6,1
1664,3,5,-35,2,3,-98,7,2
1665,4,5,-36,3,4,-101,7,2
1666,4,5,-36,4,4,-103,8,3
1667,5,6,-35,5,4,-105,8,3
1668,5,6,-34,5,4,-105,8,3
1669,4,6,-32,4,3,-100,8,3
1670,3,7,-29,4,3,-94,7,2
1671,2,8,-28,3,2,-87,7,2
1672,1,10,-28,3,1,-85,6,2
1673,0,10,-29,2,0,-85,6,2
1674,0,10,-30,2,-1,-86,5,3
1675,0,9,-30,2,-1,-85,4,3
1676,0,7,-30,1,-2,-83,4,2
1677,0,6,-31,0,-3,-83,3,2
1678,0,5,-33,-1,-4,-85,3,1
1679,-1,3,-37,-2,-5,-92,3,0
1680,-1,2,-42,-2,-5,-101,3,-1
1681,-2,1,-47,-2,-6,-111,3,-1
1682,-3,0,-51,-3,-7,-119,2,-2
1683,-4,-2,-54,-3,-7,-126,1,-3
1684,-4,-3,-57,-3,-6,-134,1,-3
1685,-5,-3,-60,-3,-6,-143,0,-4
1686,-5,-3,-60,-3,-5,-148,0,-4
1687,-5,-3,-57,-2,-5,-145,0,-4
1688,-5,-2,-51,-1,-5,-134,0,-4
1689,-5,-1,-42,1,-5,-115,0,-3
1690,-5,0,-33,2,-5,-93,1,-2
1691,-5,1,-26,3,-5,-77,1,-1
1692,-5,1,-24,3,-4,-69,1,-1
1693,-4,2,-24,3,-4,-68,2,0
1694,-4,2,-24,3,-3,-69,2,0
1695,-3,3,-23,3,-2,-68,3,0
1696,-2,4,-22,2,-1,-67,3,0
1697,-1,5,-23,3,0,-68,4,1
1698,0,6,-23,3,1,-67,4,2
1699,1,7,-23,3,1,-61,3,2
1700,1,8,-21,2,1,-52,3,2
1701,0,9,-20,2,0,-45,2,1
1702,-1,10,-19,1,1,-42,1,0
1703,-1,10,-19,1,1,-44,0,0
1704,-1,10,-21,1,2,-52,0,-1
1705,0,9,-24,2,2,-62,0,-1
1706,0,8,-27,2,1,-70,1,-1
1707,0,7,-27,2,0,-71,1,-1
1708,0,6,-25,1,-1,-70,1,-1
1709,-1,4,-23,0,-1,-69,1,-1
1710,-2,4,-20,-1,-1,-68,0,-1
1711,-3,3,-18,-1,-1,-64,-1,-2
1712,-4,3,-16,-1,-1,-57,-1,-2
1713,-6,2,-15,-1,0,-54,-2,-3
1714,-7,2,-15,0,0,-54,-2,-3
1715,-7,1,-16,1,0,-55,-1,-3
1716,-7,1,-15,3,0,-55,0,-3
1717,-7,1,-13,4,0,-50,1,-3
1718,-6,1,-10,5,0,-42,2,-3
1719,-5,1,-7,6,0,-33,3,-4
1720,-4,1,-5,6,-1,-24,4,-4
1721,-3,1,-4,6,-1,-17,4,-3
1722,-2,2,-2,7,-1,-11,4,-2
1723,-1,2,-1,7,-2,-6,4,-2
1724,-1,3,1,8,-2,-2,5,-1
1725,0,4,3,9,-2,1,6,-1
1726,1,5,3,10,-2,3,7,0
1727,1,7,2,12,-2,6,8,1
1728,2,8,2,13,-3,10,9,2
1729,3,9,2,13,-2,14,10,3
1730,3,8,3,12,-2,20,10,3
1731,2,7,5,10,-2,24,10,2
1732,2,5,7,7,-1,26,8,1
1733,0,4,8,5,-1,28,6,-1
1734,-1,2,9,3,-1,31,4,-2
1735,-2,0,10,1,-2,33,2,-3
1736,-3,-2,10,0,-3,33,1,-3
1737,-3,-3,10,0,-4,32,-1,-3
1738,-4,-3,9,0,-4,31,-2,-3
1739,-4,-4,8,-1,-4,30,-3,-2
1740,-5,-3,6,-1,-3,27,-4,-2
1741,-5,-2,4,-1,-2,20,-5,-1
1742,-7,-1,2,-1,-1,12,-6,-2
1743,-8,0,2,-1,-1,5,-6,-2
1744,-9,1,2,-2,-1,-3,-6,-3
1745,-9,1,2,-3,0,-11,-6,-4
1746,-9,1,2,-3,1,-17,-6,-4
1747,-7,1,-1,-4,1,-24,-6,-4
1748,-5,1,-5,-4,2,-33,-6,-3
1749,-3,2,-8,-3,2,-41,-5,-3
1750,-2,2,-8,-2,1,-43,-5,-3
1751,-2,2,-5,-3,-1,-43,-5,-3
1752,-3,2,-2,-3,-2,-45,-6,-4
1753,-4,2,1,-4,-2,-50,-7,-4
1754,-5,1,2,-5,-2,-58,-8,-3
1755,-6,1,2,-5,-3,-68,-8,-3
1756,-7,1,1,-5,-3,-79,-8,-3
1757,-7,1,0,-4,-4,-88,-8,-4
1758,-7,-1,-1,-4,-4,-96,-8,-4
1759,-6,-2,-2,-4,-5,-104,-8,-5
1760,-6,-3,-4,-4,-5,-110,-8,-6
1761,-5,-4,-6,-4,-5,-116,-8,-7
1762,-5,-5,-8,-3,-5,-121,-9,-7
1763,-5,-5,-10,-3,-4,-123,-9,-7
1764,-4,-5,-11,-3,-4,-124,-8,-6
1765,-4,-4,-12,-3,-3,-124,-7,-6
1766,-3,-2,-13,-3,-2,-124,-6,-5
1767,-2,0,-14,-3,0,-124,-5,-3
1768,-1,1,-16,-3,1,-126,-4,-2
1769,-1,2,-18,-3,2,-127,-3,-1
1770,0,2,-19,-2,3,-128,-3,0
1771,0,2,-20,-1,3,-126,-2,-1
1772,0,2,-19,-1,3,-122,-2,-1
1773,1,1,-19,0,3,-117,-1,-2
1774,2,1,-21,1,3,-115,0,-2
1775,3,1,-25,2,3,-116,0,-1
1776,5,1,-28,2,3,-116,1,-1
1777,6,2,-29,1,3,-112,0,0
1778,6,2,-27,-1,2,-102,-1,1
1779,5,2,-22,-3,2,-89,-2,2
1780,3,2,-16,-5,0,-75,-4,2
1781,1,1,-9,-7,-1,-62,-6,1
1782,-2,-1,-5,-8,-2,-53,-8,-1
1783,-4,-3,-3,-10,-3,-51,-10,-3
1784,-6,-5,-3,-11,-4,-53,-11,-5
1785,-7,-7,-3,-11,-4,-52,-12,-6
1786,-7,-8,-1,-11,-4,-48,-12,-7
1787,-7,-9,2,-11,-4,-39,-11,-8
1788,-7,-9,4,-10,-4,-29,-11,-8
1789,-5,-9,7,-8,-3,-19,-10,-8
1790,-4,-8,9,-7,-2,-11,-9,-7
1791,-3,-7,10,-4,-1,-8,-8,-5
1792,-3,-5,9,-2,1,-7,-7,-3
1793,-2,-3,8,0,2,-5,-6,-2
1794,-2,-1,7,3,3,-3,-4,-1
1795,-1,2,6,5,4,1,-2,0
1796,1,4,5,7,5,5,0,2
1797,3,6,5,9,6,9,2,3
1798,4,7,6,10,8,16,3,5
1799,4,9,8,11,9,25,4,6
1800,5,10,10,11,10,33,4,7
1801,5,10,11,10,10,35,4,8
1802,5,10,11,10,11,34,3,9
1803,6,9,11,9,11,33,3,9
1804,6,8,13,9,10,34,4,9
1805,7,7,15,8,9,39,3,8
1806,7,5,18,7,7,50,3,8
1807,7,4,22,6,5,63,3,7
1808,6,2,26,4,4,75,2,7
1809,5,0,30,3,3,84,2,6
1810,4,-2,32,2,2,90,2,4
1811,4,-4,33,1,1,93,2,2
1812,4,-7,32,0,0,97,2,0
1813,5,-8,32,0,-2,103,2,-1
1814,6,-10,32,1,-3,109,3,-3
1815,6,-10,32,1,-4,113,3,-3
1816,6,-9,31,1,-4,114,3,-4
1817,5,-7,30,1,-4,109,4,-4
1818,4,-5,27,1,-3,102,4,-3
1819,4,-3,24,1,-2,93,3,-3
1820,3,-1,21,1,-1,85,2,-2
1821,3,2,20,1,0,79,2,0
1822,4,4,19,1,2,75,2,2
1823,4,6,17,2,4,68,2,5
1824,5,7,15,4,6,60,3,7
1825,6,9,13,6,8,50,3,9
1826,7,10,12,8,9,44,4,10
1827,7,11,11,9,10,41,5,11
1828,7,12,11,10,11,38,6,11
1829,7,12,10,10,12,32,6,12
1830,7,12,7,9,12,23,6,12
1831,7,11,3,9,12,13,6,12
1832,6,10,-1,9,11,2,5,12
1833,6,9,-3,9,11,-8,5,12
1834,5,8,-3,9,10,-14,5,11
1835,5,7,-1,9,9,-13,6,10
1836,6,5,1,8,7,-9,6,9
1837,7,3,2,8,6,-5,6,8
1838,7,1,-1,7,4,-5,6,7
1839,8,-1,-5,6,2,-9,6,6
1840,8,-3,-12,5,1,-20,6,4
1841,8,-4,-21,4,1,-37,6,3
1842,7,-5,-30,2,0,-56,6,2
1843,7,-5,-37,1,1,-71,5,1
1844,6,-5,-40,1,1,-76,5,0
1845,6,-4,-40,1,1,-72,5,-1
1846,5,-3,-40,1,0,-68,6,-1
1847,5,-1,-44,2,-1,-69,6,-1
1848,4,0,-49,3,-2,-76,6,-1
1849,4,1,-54,3,-3,-83,5,-1
1850,3,2,-55,4,-3,-86,5,-2
1851,3,2,-53,5,-4,-79,4,-2
1852,3,4,-47,7,-4,-61,4,-1
1853,4,5,-37,9,-3,-35,5,0
1854,5,8,-28,10,-2,-9,7,2
1855,7,10,-22,12,0,9,8,5
1856,8,11,-19,13,2,19,9,7
1857,9,11,-19,13,3,22,10,8
1858,9,10,-20,12,3,21,9,8
1859,8,8,-23,10,2,14,8,6
1860,6,6,-28,7,0,4,6,4
1861,4,4,-32,3,-2,-8,4,2
1862,1,1,-37,0,-4,-22,1,-1
1863,-1,-2,-42,-3,-6,-37,-1,-4
1864,-2,-5,-46,-6,-7,-52,-3,-7
1865,-3,-8,-49,-7,-9,-63,-4,-10
1866,-4,-9,-49,-8,-10,-65,-4,-12
1867,-5,-10,-43,-8,-11,-53,-5,-14
1868,-6,-10,-34,-7,-11,-28,-5,-15
1869,-7,-10,-22,-7,-12,4,-6,-15
1870,-8,-9,-12,-6,-11,36,-7,-14
1871,-8,-8,-6,-5,-10,60,-7,-12
1872,-8,-6,-5,-4,-8,71,-6,-11
1873,-8,-4,-6,-3,-7,72,-6,-9
1874,-7,-2,-9,-1,-5,66,-5,-7
1875,-5,0,-13,1,-4,56,-4,-5
1876,-4,2,-17,2,-3,45,-3,-3
1877,-3,4,-22,4,-1,32,-2,-1
1878,-1,6,-27,5,0,16,0,1
1879,-1,9,-32,6,2,-1,1,3
1880,0,10,-37,7,3,-17,2,4
1881,0,12,-39,8,4,-28,2,5
1882,-1,11,-39,8,4,-35,1,5
1883,-2,9,-37,7,4,-40,-1,4
1884,-4,7,-34,5,3,-42,-3,2
1885,-7,3,-30,3,1,-40,-5,0
1886,-9,0,-22,0,-1,-29,-8,-3
1887,-10,-3,-14,-3,-2,-12,-10,-5
1888,-11,-5,-5,-5,-4,8,-12,-7
1889,-11,-7,3,-7,-4,29,-13,-9
1890,-10,-9,8,-8,-5,45,-14,-10
1891,-8,-11,9,-9,-5,52,-14,-10
1892,-6,-12,6,-10,-5,51,-13,-11
1893,-5,-12,1,-10,-5,44,-12,-11
1894,-3,-11,-4,-9,-5,34,-11,-11
1895,-2,-10,-7,-8,-5,23,-10,-10
1896,-2,-8,-11,-7,-5,12,-8,-9
1897,-1,-6,-15,-5,-5,-2,-6,-7
1898,-1,-4,-19,-3,-5,-16,-4,-6
1899,0,-3,-21,-2,-4,-27,-3,-4
1900,0,-1,-23,-1,-3,-35,-2,-3
1901,0,1,-23,0,-3,-40,-2,-2
1902,0,2,-23,1,-2,-44,-1,-1
1903,1,3,-23,3,-1,-48,1,0
1904,1,5,-23,4,0,-50,2,1
1905,1,6,-23,5,1,-50,2,2
1906,2,6,-21,6,1,-47,2,3
1907,3,5,-17,6,2,-41,3,3
1908,4,3,-12,6,2,-32,3,2
1909,5,2,-7,6,3,-23,3,2
1910,5,1,-3,5,3,-15,3,2
1911,5,-1,1,4,4,-8,3,3
1912,5,-1,5,3,4,-1,2,3
1913,4,-2,9,1,4,6,1,3
1914,3,-2,12,-1,3,11,0,2
1915,2,-3,14,-3,2,12,-1,1
1916,2,-4,13,-4,1,10,-2,0
1917,2,-4,11,-6,0,5,-2,-1
1918,2,-5,9,-6,-1,0,-2,-2
1919,2,-5,8,-7,-2,-3,-2,-2
1920,3,-5,7,-6,-2,-4,-2,-2
1921,3,-4,6,-6,-2,-6,-2,-2
1922,4,-3,3,-5,-2,-9,-2,-1
1923,4,-3,1,-4,-2,-12,-1,-1
1924,5,-2,-1,-3,-1,-14,-1,0
1925,6,-1,-3,-2,0,-14,1,1
1926,8,2,-2,0,2,-11,2,2
1927,9,3,0,2,3,-2,3,3
1928,10,4,4,3,4,8,4,4
1929,10,5,6,5,4,18,4,5
1930,10,5,8,5,4,24,3,6
1931,9,6,10,5,3,28,2,7
1932,7,6,11,5,3,32,1,6
1933,6,7,12,4,3,33,1,6
1934,5,8,13,3,2,34,1,5
1935,5,8,13,1,2,36,1,4
1936,5,8,14,0,2,38,1,4
1937,6,7,15,-1,2,39,1,4
1938,5,6,16,-2,3,35,1,4
1939,4,5,17,-3,3,30,-1,4
1940,2,4,18,-5,3,25,-2,4
1941,-1,3,21,-6,2,24,-4,3
1942,-4,2,24,-8,1,24,-6,1
1943,-5,1,24,-9,-1,24,-6,-1
1944,-6,0,22,-10,-3,21,-6,-3
1945,-5,-1,17,-10,-4,13,-6,-4
1946,-3,-2,10,-10,-4,4,-5,-4
1947,-2,-2,3,-9,-4,-5,-4,-4
1948,0,-2,-2,-8,-4,-10,-5,-3
1949,2,-2,-5,-7,-3,-11,-6,-1
1950,2,-2,-5,-7,-3,-10,-9,2
1951,2,-2,-5,-6,-2,-11,-12,5
1952,2,-1,-5,-5,-2,-13,-15,8
1953,2,0,-4,-3,-1,-14,-16,10
1954,1,1,-3,-2,0,-13,-17,12
1955,1,2,0,-1,1,-11,-16,12
1956,1,2,3,1,1,-9,-16,12
1957,0,1,6,1,2,-6,-15,12
1958,-1,1,10,1,3,-1,-14,12
1959,-1,2,12,1,4,3,-14,12
1960,-1,2,13,1,5,5,-14,12
1961,-1,2,14,1,6,7,-13,12
1962,-1,2,15,0,6,8,-13,12
1963,-2,2,16,-1,5,6,-14,11
1964,-2,2,16,-3,4,4,-14,10
1965,-3,2,16,-4,3,1,-14,10
1966,-3,3,15,-5,1,-2,-13,9
1967,-3,4,13,-6,1,-5,-13,8
1968,-3,5,11,-6,0,-8,-12,8
1969,-4,6,9,-5,0,-9,-11,7
1970,-4,8,7,-5,0,-11,-11,7
1971,-4,8,3,-4,0,-13,-10,6
1972,-4,9,0,-3,0,-17,-10,6
1973,-4,8,-2,-2,-1,-23,-10,6
1974,-4,8,-5,-2,-1,-32,-10,5
1975,-3,7,-7,-2,0,-45,-10,5
1976,-2,6,-10,-2,0,-58,-10,6
1977,-2,5,-13,-2,0,-71,-10,6
1978,-2,4,-15,-2,-1,-80,-10,6
1979,-2,3,-15,-2,-1,-84,-10,5
1980,-3,2,-13,-2,-1,-82,-9,5
1981,-4,1,-10,-3,-1,-78,-8,4
1982,-5,-1,-8,-3,0,-74,-7,3
1983,-4,-2,-7,-3,0,-70,-5,3
1984,-3,-3,-7,-2,0,-63,-4,2
1985,-2,-4,-6,-1,-1,-52,-3,2
1986,-2,-4,-3,-1,-2,-36,-2,1
1987,-1,-4,-1,0,-3,-24,-2,2
1988,-1,-2,1,0,-2,-18,-2,2
1989,-1,0,0,0,-1,-16,-1,3
1990,-1,3,0,0,0,-14,0,4
1991,-1,5,1,1,0,-9,1,5
1992,0,6,4,1,0,1,2,5
1993,1,6,7,2,-1,13,4,5
1994,1,5,9,2,-1,20,5,5
1995,2,4,9,3,-1,21,5,5
1996,3,3,7,3,-1,16,5,4
1997,3,1,5,3,-1,11,5,3
1998,3,0,5,3,-2,9,5,2
1999,2,-2,6,2,-2,11,4,2
2000,0,-3,8,2,-2,14,3,1
2001,-2,-3,10,1,-2,19,1,1
2002,-4,-3,13,0,-1,23,0,0
2003,-5,-3,15,-2,-1,26,0,0
2004,-7,-3,16,-3,0,28,-1,-1
2005,-7,-4,17,-4,1,29,-1,-2
2006,-8,-5,18,-5,1,29,-1,-2
2007,-7,-6,19,-5,1,30,-1,-3
2008,-6,-7,21,-5,0,35,-1,-3
2009,-5,-7,23,-6,-1,40,0,-4
2010,-5,-6,22,-6,-2,41,1,-4
2011,-4,-5,20,-5,-2,40,1,-3
2012,-4,-3,18,-5,-2,39,2,-3
2013,-3,-2,18,-4,-2,39,2,-3
2014,-3,-1,19,-3,-1,40,2,-3
2015,-2,1,19,-1,-1,39,2,-3
2016,0,1,18,1,0,34,3,-2
2017,2,2,13,2,0,25,4,-1
2018,3,3,7,4,0,15,5,0
2019,5,3,4,5,0,10,6,1
2020,5,4,4,6,0,12,6,1
2021,5,3,9,6,0,24,6,1
2022,5,3,17,6,0,40,6,1
2023,3,2,24,5,0,56,5,0
2024,2,2,31,5,1,70,5,-1
2025,1,0,36,4,0,81,5,-2
2026,1,-2,40,4,-1,87,4,-3
2027,2,-5,40,4,-2,86,4,-4
2028,2,-6,39,4,-3,81,4,-4
2029,2,-7,37,4,-3,77,3,-5
2030,1,-7,35,4,-3,75,3,-5
2031,1,-6,34,2,-3,76,2,-4
2032,0,-6,34,1,-3,80,1,-4
2033,-1,-5,35,-1,-2,85,-1,-4
2034,-2,-6,36,-3,-2,88,-2,-4
2035,-2,-6,35,-4,-2,89,-3,-4
2036,-2,-6,34,-4,-1,88,-3,-5
2037,-1,-5,32,-4,-1,86,-3,-4
2038,-1,-5,30,-3,-1,83,-3,-4
2039,0,-4,26,-2,-1,77,-2,-3
2040,1,-3,23,-1,-1,70,-1,-2
2041,2,-2,20,1,-1,64,1,-2
2042,4,-2,19,3,-2,62,3,-3
2043,5,-2,19,5,-2,63,4,-3
2044,5,-3,19,5,-2,65,5,-4
2045,6,-4,19,6,-2,67,6,-5
2046,6,-4,19,5,-2,69,6,-6
2047,6,-5,20,5,-1,70,7,-6
2048,6,-5,19,5,-1,68,7,-6
2049,6,-6,19,5,1,66,8,-6
2050,6,-6,20,5,2,64,9,-6
2051,6,-7,20,5,2,63,9,-5
2052,7,-7,21,5,3,61,9,-4
2053,8,-9,22,4,2,61,9,-4
2054,10,-13,24,4,1,64,8,-4
2055,12,-17,26,3,-1,67,7,-4
2056,14,-20,26,3,-3,67,6,-4
2057,15,-21,26,3,-4,64,5,-4
2058,16,-22,24,2,-4,57,4,-4
2059,16,-22,21,3,-4,48,3,-3
2060,16,-22,17,3,-3,37,4,-3
2061,16,-22,14,3,-1,30,4,-2
2062,16,-22,12,2,0,27,5,-2
2063,15,-22,12,2,1,29,6,-1
2064,14,-21,11,1,1,31,5,-1
2065,12,-19,11,1,0,31,4,-2
2066,11,-18,10,0,-1,29,2,-2
2067,9,-17,9,0,-2,27,1,-2
2068,7,-15,9,0,-3,27,0,-2
2069,6,-13,10,0,-3,31,-1,-2
2070,6,-11,13,0,-3,37,0,-2
2071,6,-9,15,1,-3,42,1,-1
2072,6,-8,15,1,-3,44,2,0
2073,5,-6,14,1,-3,43,2,2
2074,5,-5,13,1,-3,41,2,3
2075,4,-4,15,1,-2,41,1,4
2076,3,-4,18,0,-2,42,1,4
2077,2,-4,21,-1,-1,43,-1,3
2078,1,-4,23,-2,-1,41,-2,3
2079,-1,-5,23,-3,-1,37,-3,2
2080,-2,-5,23,-4,-1,34,-4,2
2081,-3,-6,22,-5,-1,32,-5,1
2082,-4,-7,21,-6,-2,33,-6,-1
2083,-5,-8,21,-7,-2,35,-6,-2
2084,-5,-9,21,-8,-2,38,-6,-4
2085,-6,-9,21,-8,-2,40,-5,-5
2086,-6,-8,21,-9,-1,41,-4,-5
2087,-6,-7,21,-8,0,41,-4,-4
2088,-5,-5,21,-8,1,42,-3,-3
2089,-4,-5,21,-8,1,45,-3,-3
2090,-3,-4,21,-7,1,47,-3,-2
2091,-2,-4,21,-6,1,50,-2,-2
2092,-2,-4,22,-5,0,53,-1,-2
2093,-1,-3,22,-5,0,55,-1,-1
2094,-1,-2,22,-4,0,54,-1,-1
2095,-1,-2,22,-3,0,52,-1,0
2096,-1,-2,22,-3,0,50,-1,0
2097,-2,-2,23,-3,0,51,-1,-1
2098,-2,-3,25,-3,0,55,-2,-2
2099,-2,-3,26,-3,0,58,-3,-2
2100,-2,-3,26,-3,0,56,-3,-2
2101,-2,-2,24,-3,0,47,-4,-1
2102,-2,-1,21,-2,0,35,-4,0
2103,-1,0,18,-2,0,22,-4,1
2104,-1,0,16,-1,0,12,-4,1
2105,-1,0,14,0,-1,8,-4,1
2106,0,0,13,0,-1,10,-3,2
2107,1,1,13,-1,-1,14,-3,2
2108,1,2,13,-1,-1,16,-3,2
2109,1,2,12,-1,-1,17,-2,3
2110,1,3,12,0,-1,19,-2,3
2111,1,3,11,0,0,19,-2,3
2112,1,3,9,1,0,17,-2,3
2113,1,3,6,1,1,13,-2,2
2114,2,2,3,2,1,10,-1,2
2115,2,3,1,2,0,9,0,2
2116,2,3,1,3,-1,10,1,2
2117,2,3,2,3,-1,14,1,2
2118,2,3,3,3,-2,18,1,2
2119,1,4,4,3,-2,18,1,2
2120,0,4,4,3,-2,15,1,2
2121,-1,4,5,3,-1,12,1,2
2122,-1,4,5,3,-1,11,1,2
2123,-1,4,6,3,0,10,2,3
2124,-1,4,6,3,1,10,2,3
2125,0,4,6,3,1,10,2,3
2126,2,3,5,3,1,8,2,4
2127,2,3,4,3,1,5,2,4
2128,2,3,3,3,0,2,1,4
2129,1,3,4,2,-1,2,-1,4
2130,-1,3,5,0,-1,2,-2,3
2131,-2,3,7,-1,-1,-1,-3,2
2132,-4,3,7,-2,-1,-6,-3,0
2133,-4,3,6,-2,-1,-13,-3,-1
2134,-4,2,5,-2,-2,-19,-2,-2
2135,-4,1,4,-2,-2,-23,-2,-3
2136,-4,1,2,-2,-2,-28,-2,-3
2137,-4,1,1,-1,-3,-31,-1,-3
2138,-4,2,-1,0,-3,-33,-1,-3
2139,-4,3,-2,1,-4,-34,-1,-3
2140,-3,3,-3,2,-3,-35,1,-3
2141,-2,4,-5,3,-3,-36,2,-3
2142,-2,3,-6,3,-2,-38,3,-2
2143,-2,3,-8,3,-1,-41,3,-2
2144,-3,2,-9,2,-1,-44,3,-2
2145,-3,0,-8,1,-1,-45,2,-2
2146,-4,-1,-8,0,-2,-41,1,-2
2147,-4,-2,-6,-1,-2,-35,1,-2
2148,-4,-3,-4,-2,-2,-27,0,-3
2149,-4,-4,-3,-2,-2,-21,0,-3
2150,-3,-4,-2,-2,-2,-16,0,-4
2151,-2,-5,-1,-2,-1,-12,1,-4
2152,0,-5,0,-1,-1,-9,2,-3
2153,2,-5,1,0,0,-5,3,-3
2154,3,-4,1,1,0,-2,4,-1
2155,4,-3,1,3,0,1,5,0
2156,5,-2,0,3,-1,4,5,1
2157,5,-1,-1,4,-1,6,5,1
2158,6,-1,-2,4,-1,5,6,1
2159,6,-1,-5,4,-1,1,6,0
2160,6,-2,-7,4,0,-4,6,-2
2161,6,-2,-9,4,-1,-8,6,-3
2162,6,-2,-11,3,-1,-12,6,-4
2163,7,-2,-12,3,-2,-15,6,-5
2164,7,-1,-13,3,-2,-16,6,-4
2165,6,0,-13,3,-1,-18,6,-4
2166,6,1,-14,3,0,-20,6,-3
2167,5,1,-14,3,2,-24,6,-2
2168,4,2,-14,4,2,-30,6,-1
2169,4,1,-14,4,3,-37,6,-1
2170,3,0,-15,4,3,-45,5,0
2171,3,-1,-16,4,3,-51,5,1
2172,3,-2,-16,5,4,-56,5,1
2173,4,-3,-17,5,4,-58,6,2
2174,4,-4,-17,6,4,-61,7,2
2175,5,-5,-20,6,4,-68,7,2
2176,6,-5,-25,7,4,-81,8,3
2177,7,-5,-32,7,3,-97,8,3
2178,7,-5,-37,7,3,-112,8,3
2179,8,-5,-39,7,2,-118,8,2
2180,8,-4,-36,8,1,-112,8,2
2181,8,-4,-30,8,0,-95,8,2
2182,7,-3,-23,8,-1,-74,8,2
2183,7,-2,-17,7,-1,-52,9,2
2184,6,-2,-12,6,-1,-36,9,1
2185,5,0,-10,6,-1,-27,10,0
2186,4,1,-9,6,-1,-24,9,-1
2187,2,2,-8,5,-1,-23,8,-1
2188,1,2,-7,4,-1,-22,7,-1
2189,-1,2,-6,3,-1,-23,5,-1
2190,-2,1,-5,2,0,-25,3,-1
2191,-3,1,-5,0,0,-27,1,-1
2192,-5,1,-3,-1,1,-26,-1,-1
2193,-6,1,1,-1,2,-20,-2,0
2194,-6,2,6,0,2,-11,-2,1
2195,-7,2,12,1,3,1,-1,2
2196,-7,1,17,2,4,10,0,2
2197,-6,1,19,3,4,16,1,3
2198,-4,0,18,3,4,17,2,3
2199,-3,-1,15,3,3,13,3,3
2200,-2,-1,11,3,2,9,3,2
2201,-2,0,8,3,1,5,3,2
2202,-1,0,5,4,1,3,3,2
2203,-1,0,4,3,0,3,3,2
2204,-1,0,4,3,0,6,2,2
2205,-1,1,4,3,0,8,2,2
2206,-1,1,4,3,1,7,2,2
2207,-2,2,3,3,1,4,2,1
2208,-3,2,3,3,1,1,3,1
2209,-3,2,3,4,1,-2,3,1
2210,-3,2,4,4,1,-1,3,0
2211,-2,1,6,4,0,4,2,-1
2212,-2,0,7,3,-1,11,2,-2
2213,-2,-1,8,2,-2,13,1,-3
2214,-1,-1,7,1,-2,10,1,-4
2215,-1,-1,5,1,-2,4,1,-5
2216,-1,-2,4,1,-1,-2,1,-5
2217,0,-2,4,2,1,-5,0,-5
2218,0,-2,5,2,1,-4,0,-5
2219,1,-3,7,3,1,-2,-1,-5
2220,1,-3,7,4,1,-1,-1,-5
2221,2,-4,8,4,1,1,0,-5
2222,3,-4,7,5,0,0,1,-5
2223,3,-4,6,5,-1,1,2,-4
2224,3,-4,5,5,-2,3,2,-4
2225,2,-3,5,5,-3,5,2,-3
2226,2,-2,4,4,-3,6,2,-3
2227,1,-1,3,4,-4,5,1,-3
2228,1,-1,2,3,-3,4,1,-3
2229,0,-1,1,2,-3,3,0,-3
2230,0,-2,1,2,-4,4,0,-4
2231,0,-4,2,2,-5,5,0,-5
2232,-1,-5,3,1,-5,8,0,-6
2233,-2,-5,5,1,-6,9,0,-7
2234,-2,-6,5,0,-7,7,0,-7
2235,-3,-6,5,1,-6,2,0,-8
2236,-3,-7,3,1,-6,-4,0,-8
2237,-3,-7,1,0,-5,-8,0,-9
2238,-3,-8,-1,0,-5,-9,0,-9
2239,-3,-8,-1,-1,-6,-6,0,-10
2240,-3,-7,2,-2,-6,1,-1,-11
2241,-3,-7,3,-3,-7,5,-2,-12
2242,-2,-6,3,-3,-8,5,-2,-12
2243,-1,-4,2,-3,-8,4,-3,-11
2244,-1,-3,1,-3,-8,5,-3,-10
2245,-1,-1,1,-3,-7,7,-3,-9
2246,-2,-1,2,-3,-5,9,-2,-7
2247,-2,-1,4,-3,-4,10,-2,-6
2248,-2,-1,5,-2,-3,11,-2,-5
2249,-2,-1,6,-2,-3,10,-2,-5
2250,-3,-1,6,-1,-3,9,-2,-5
2251,-3,-1,6,-1,-3,10,-3,-5
2252,-3,-1,6,-1,-4,12,-3,-5
2253,-3,-1,5,-1,-4,11,-3,-4
2254,-2,-2,3,-1,-4,9,-3,-4
2255,-1,-3,0,-2,-4,7,-3,-4
2256,0,-4,-3,-2,-5,7,-3,-4
2257,0,-5,-4,-4,-6,9,-3,-5
2258,-1,-5,-3,-5,-7,13,-3,-6
2259,-2,-5,-2,-5,-7,17,-3,-7
2260,-3,-4,-1,-6,-8,20,-3,-7
2261,-4,-3,-2,-6,-8,20,-4,-8
2262,-5,-2,-3,-5,-8,17,-4,-7
2263,-5,-1,-5,-5,-8,12,-4,-7
2264,-5,0,-7,-5,-7,7,-4,-7
2265,-5,0,-8,-5,-7,5,-4,-6
2266,-4,0,-7,-4,-6,7,-4,-6
2267,-4,1,-5,-4,-6,12,-4,-6
2268,-5,1,-2,-4,-5,17,-4,-6
2269,-6,2,1,-4,-4,21,-5,-6
2270,-7,3,2,-4,-4,23,-5,-4
2271,-7,4,4,-3,-3,23,-6,-3
2272,-6,6,5,-2,-3,23,-5,-1
2273,-5,7,6,0,-2,26,-5,0
2274,-4,9,7,1,-1,30,-4,2
2275,-3,10,6,2,0,31,-3,3
2276,-3,11,4,3,1,30,-2,4
2277,-3,12,2,3,2,29,-1,5
2278,-3,13,2,3,3,30,-1,6
2279,-3,13,2,3,3,33,-1,7
2280,-3,13,4,3,3,35,0,7
2281,-2,12,5,3,2,35,0,7
2282,-2,11,4,3,3,33,1,7
2283,-2,10,3,3,3,30,2,7
2284,-2,10,1,2,3,29,2,7
2285,-1,9,0,2,3,29,2,7
2286,-1,8,-1,1,2,31,2,7
2287,-1,6,-1,1,2,33,2,6
2288,-1,6,0,-1,1,34,2,5
2289,-2,5,0,-1,1,33,2,5
2290,-3,5,0,-1,0,31,2,4
2291,-3,4,0,-1,-1,31,2,3
2292,-3,3,1,-1,-1,32,2,2
2293,-3,2,3,-1,-2,35,1,0
2294,-3,1,5,-1,-2,41,1,-1
2295,-3,0,9,-1,-2,50,0,-1
2296,-3,0,14,-1,-2,60,-1,-2
2297,-4,0,19,-2,-1,68,-1,-1
2298,-4,1,22,-2,-1,74,-2,-1
2299,-5,1,24,-3,-1,78,-2,-1
2300,-5,2,23,-4,-1,80,-3,0
2301,-5,4,21,-4,0,80,-2,1
2302,-5,7,19,-3,1,79,-2,3
2303,-3,9,16,-1,2,79,-1,5
2304,-1,10,15,0,3,79,0,6
2305,1,10,14,1,3,79,1,8
2306,3,10,14,1,4,79,1,9
2307,4,10,14,1,4,80,1,9
2308,4,9,15,1,4,82,2,9
2309,4,8,15,1,3,83,2,9
2310,3,7,16,1,3,86,2,8
2311,2,5,18,0,3,90,2,7
2312,1,4,20,0,3,94,3,6
2313,0,3,21,1,3,95,3,6
2314,0,3,21,2,3,91,4,6
2315,1,2,18,3,3,84,5,6
2316,2,3,14,4,3,78,5,7
2317,3,3,11,4,2,73,6,7
2318,4,4,8,4,2,68,6,7
2319,4,4,4,4,2,63,5,6
2320,3,5,2,4,1,57,5,5
2321,3,6,1,4,1,52,5,4
2322,2,7,-1,3,1,47,4,3
2323,2,7,-1,2,1,41,4,2
2324,2,7,-2,1,0,36,3,1
2325,2,7,-4,0,0,29,3,1
2326,2,6,-6,-1,0,22,3,0
2327,2,5,-8,-1,-1,17,3,0
2328,3,4,-9,0,-1,12,4,-1
2329,4,3,-10,1,-1,8,4,-1
2330,5,2,-12,2,-1,3,5,0
2331,6,2,-15,3,-1,-6,5,1
2332,7,2,-19,4,0,-17,6,1
2333,7,2,-24,5,1,-29,7,2
2334,7,2,-28,6,2,-39,8,3
2335,6,2,-32,6,3,-51,9,3
2336,5,2,-36,6,3,-62,8,3
2337,4,2,-40,5,3,-73,7,3
2338,2,1,-43,5,3,-85,6,2
2339,1,0,-46,4,3,-99,5,1
2340,1,-1,-49,4,2,-114,5,0
2341,0,-2,-52,4,2,-130,4,-1
2342,-2,-2,-56,3,1,-148,3,-1
2343,-3,-1,-59,3,1,-161,2,-1
2344,-5,1,-58,2,1,-163,1,-1
2345,-7,4,-54,2,1,-153,0,-1
2346,-8,6,-48,2,1,-135,0,0
2347,-9,8,-41,2,0,-113,0,1
2348,-8,9,-34,3,-1,-93,1,1
2349,-8,9,-28,3,-1,-77,1,1
2350,-8,9,-25,3,-1,-66,1,1
2351,-8,10,-24,2,-1,-60,0,2
2352,-9,10,-23,2,-1,-54,0,2
2353,-8,11,-23,2,-1,-49,1,2
2354,-7,11,-23,2,-1,-42,1,2
2355,-6,11,-21,2,-1,-33,1,1
2356,-4,11,-18,3,-1,-22,1,1
2357,-3,10,-14,4,0,-12,1,1
2358,-2,10,-10,5,1,-2,1,1
2359,-2,10,-4,6,2,7,1,2
2360,-2,10,1,6,3,16,1,3
2361,-2,10,6,6,3,24,0,3
2362,-3,10,9,6,3,29,-1,4
2363,-4,10,10,5,3,27,-2,4
2364,-5,10,6,5,3,19,-3,4
2365,-6,10,2,4,3,6,-4,4
2366,-8,10,-4,2,4,-7,-5,4
2367,-9,9,-6,1,4,-15,-5,3
2368,-9,8,-5,-1,4,-14,-5,2
2369,-9,6,1,-2,3,-3,-5,2
2370,-8,5,8,-2,2,16,-6,1
2371,-7,4,16,-3,1,37,-6,1
2372,-5,3,21,-3,-1,53,-7,1
2373,-4,2,22,-3,-2,61,-7,1
2374,-4,2,19,-3,-2,59,-8,0
2375,-4,1,15,-3,-2,53,-9,0
2376,-5,0,12,-3,-2,47,-10,-1
2377,-6,-1,10,-4,-2,42,-10,-2
2378,-6,-2,10,-4,-2,40,-9,-3
2379,-5,-3,10,-4,-2,40,-9,-4
2380,-4,-3,10,-5,-2,39,-9,-4
2381,-3,-3,9,-5,-3,39,-8,-4
2382,-2,-2,7,-5,-3,39,-8,-3
2383,-2,0,6,-4,-2,40,-7,-3
2384,-2,2,6,-2,-2,43,-6,-3
2385,-3,4,8,-1,-1,45,-5,-2
2386,-4,6,9,0,0,44,-5,-2
2387,-5,6,10,0,2,42,-5,-3
2388,-6,7,11,0,3,40,-5,-3
2389,-6,7,12,0,3,39,-6,-3
2390,-7,7,12,-1,4,36,-6,-3
2391,-7,7,12,-1,4,33,-6,-3
2392,-7,6,12,-1,4,32,-6,-2
2393,-7,5,11,-1,3,28,-5,-2
2394,-6,5,9,0,4,22,-5,-2
2395,-6,5,6,0,4,14,-5,-2
2396,-6,6,2,1,4,5,-4,-2
2397,-5,7,-3,1,4,-4,-3,-1
2398,-4,7,-8,1,4,-8,-2,0
2399,-3,8,-10,1,4,-8,-1,1
2400,-2,8,-10,2,3,-5,0,2
2401,-1,8,-10,2,2,-2,1,2
2402,0,8,-10,3,1,-4,2,3
2403,0,9,-11,4,1,-10,2,3
2404,0,8,-13,5,0,-16,2,3
2405,-1,7,-14,5,-1,-20,1,2
2406,-2,6,-14,5,-2,-21,1,1
2407,-3,4,-13,5,-2,-20,1,0
2408,-4,3,-10,4,-2,-16,1,-1
2409,-5,2,-8,2,-2,-13,0,-2
2410,-6,2,-7,1,-1,-14,-2,-2
2411,-6,2,-7,0,0,-17,-3,-2
2412,-5,2,-6,-1,1,-18,-3,-2
2413,-4,1,-5,-1,2,-19,-4,-2
2414,-3,0,-4,-2,3,-21,-4,-2
2415,-3,0,-3,-2,4,-23,-4,-2
2416,-2,-1,-2,-1,4,-24,-4,-2
2417,-2,-1,-1,-1,3,-26,-4,-2
2418,-1,-1,-2,0,2,-29,-3,-1
2419,-1,-1,-3,1,1,-33,-3,-1
2420,0,0,-4,1,1,-34,-2,0
2421,0,0,-4,1,0,-33,-1,1
2422,-1,0,-5,1,-1,-32,-1,1
2423,-1,0,-7,0,-2,-31,-2,0
2424,-1,0,-8,0,-3,-30,-2,-1
2425,-2,0,-9,0,-3,-27,-2,-1
2426,-3,1,-9,0,-3,-25,-1,-2
2427,-3,1,-9,1,-2,-24,-1,-2
2428,-2,2,-9,1,-1,-24,0,-1
2429,-1,2,-8,2,-1,-23,0,-1
2430,0,2,-6,2,-1,-21,0,0
2431,0,2,-5,2,-1,-17,-1,1
2432,1,1,-2,1,-2,-12,-2,1
2433,0,-1,2,0,-3,-5,-2,0
2434,0,-2,6,-1,-4,0,-2,-1
2435,0,-3,6,0,-3,-4,-2,-1
2436,1,-3,4,1,-2,-12,-1,0
2437,2,-2,2,2,0,-21,1,1
2438,3,0,0,3,1,-24,2,2
2439,3,1,0,3,2,-21,2,3
2440,2,2,3,3,2,-12,2,3
2441,1,2,7,2,2,-1,1,3
2442,0,2,12,0,1,10,-1,2
2443,0,1,15,-1,1,17,-2,2
2444,0,1,17,-3,0,22,-3,2
2445,0,-1,18,-4,0,25,-4,1
2446,0,-2,20,-4,0,30,-4,1
2447,0,-3,23,-5,-1,36,-4,0
2448,-1,-3,26,-6,-1,40,-5,-1
2449,-2,-4,28,-6,-2,42,-5,-2
2450,-2,-4,28,-7,-2,42,-6,-2
2451,-3,-4,29,-7,-2,40,-6,-3
2452,-3,-5,28,-7,-2,36,-6,-3
2453,-2,-5,25,-7,-1,30,-6,-3
2454,-2,-4,21,-7,0,22,-6,-2
2455,-1,-4,16,-6,1,13,-5,-1
2456,-1,-3,12,-6,1,8,-5,0
2457,0,-2,9,-5,1,7,-6,2
2458,0,-2,8,-5,0,11,-7,2
2459,-1,-2,9,-5,-1,19,-7,2
2460,-1,-2,11,-6,-2,25,-8,1
2461,-1,-2,12,-6,-1,27,-7,1
2462,-1,-3,11,-6,-1,23,-7,0
2463,-1,-3,9,-7,0,18,-8,0
2464,-1,-3,9,-8,1,16,-8,1
2465,-2,-3,10,-8,2,17,-9,1
2466,-2,-2,12,-9,3,21,-10,2
2467,-2,-1,15,-8,4,25,-10,3
2468,-2,0,17,-8,4,28,-10,3
2469,-2,1,19,-7,5,29,-9,4
2470,-2,1,21,-6,6,29,-9,4
2471,-2,1,23,-6,6,31,-9,4
2472,-2,1,24,-5,6,32,-8,3
2473,-2,0,24,-4,5,32,-7,4
2474,-2,0,22,-4,5,30,-7,4
2475,-2,0,19,-3,5,24,-6,4
2476,-1,0,15,-3,5,18,-6,4
2477,0,0,12,-2,5,14,-6,4
2478,1,0,10,-1,5,13,-5,4
2479,2,0,8,-1,5,11,-5,5
2480,4,0,5,1,4,9,-3,5
2481,5,1,2,2,4,4,-2,6
2482,6,2,-2,3,5,0,0,7
2483,7,3,-4,4,5,-2,1,8
2484,7,4,-5,4,5,-1,1,9
2485,7,5,-5,4,4,3,0,9
2486,6,6,-4,3,3,4,0,9
2487,4,7,-5,2,3,1,-1,8
2488,4,8,-7,1,3,-4,0,7
2489,3,9,-8,1,4,-8,1,7
2490,3,9,-8,1,4,-10,1,6
2491,2,9,-6,1,4,-8,2,5
2492,1,8,-4,1,3,-5,1,4
2493,0,7,-2,1,2,-3,1,3
2494,-1,6,-1,0,1,-3,0,1
2495,-2,5,1,-1,1,-3,0,0
2496,-3,3,3,-1,1,-6,-1,-1
2497,-3,2,4,-1,1,-11,-1,-1
2498,-2,0,3,-1,1,-15,-2,-1
2499,-2,0,3,-1,1,-17,-3,-1
2500,-2,-1,3,-1,2,-17,-3,0
2501,-1,-1,3,-2,2,-14,-4,1
2502,-1,-1,3,-2,1,-11,-4,1
2503,-1,-1,2,-2,1,-11,-4,1
2504,-2,-1,-1,-2,0,-13,-4,1
2505,-2,0,-4,-2,-1,-17,-5,0
2506,-3,0,-7,-2,-1,-23,-5,0
2507,-3,1,-10,-1,-1,-28,-4,0
2508,-3,1,-12,-1,-1,-30,-4,0
2509,-2,1,-14,0,-2,-31,-3,1
2510,-1,2,-14,1,-2,-29,-3,0
2511,0,2,-14,2,-2,-25,-2,0
2512,2,1,-13,2,-2,-19,-1,0
2513,3,1,-12,3,-2,-16,-1,-1
2514,5,1,-12,3,-2,-17,0,-1
2515,5,0,-12,3,-1,-21,0,-1
2516,5,-1,-11,3,-1,-25,0,-2
2517,5,-2,-9,3,-1,-26,-1,-3
2518,4,-2,-6,3,-1,-26,-1,-3
2519,3,-3,-4,3,0,-26,0,-3
2520,2,-3,-3,3,1,-26,1,-2
2521,2,-3,-2,3,2,-26,1,-2
2522,1,-3,1,3,3,-23,2,-1
2523,-1,-2,4,2,3,-17,2,0
2524,-2,-2,8,2,2,-11,2,0
2525,-2,-1,10,1,2,-6,2,0
2526,-3,-1,10,0,2,-5,1,0
2527,-3,0,8,-1,1,-8,1,-1
2528,-3,-1,6,-2,1,-11,1,-2
2529,-3,-2,5,-3,-1,-12,1,-3
2530,-3,-3,5,-4,-1,-10,2,-4
2531,-3,-4,5,-4,-2,-10,3,-5
2532,-2,-5,3,-4,-2,-12,3,-5
2533,-1,-6,2,-3,-2,-13,3,-6
2534,-1,-7,1,-3,-2,-12,3,-6
2535,0,-8,1,-1,-2,-12,3,-6
2536,1,-7,2,0,-2,-13,3,-6
2537,0,-5,1,1,-2,-15,3,-5
2538,-1,-4,-1,1,-2,-20,3,-4
2539,-1,-3,-5,1,-1,-29,3,-3
2540,-2,-3,-10,1,-1,-38,3,-2
2541,-3,-4,-12,1,0,-44,2,-2
2542,-3,-4,-13,0,0,-44,2,-2
2543,-4,-4,-10,1,0,-39,1,-3
2544,-3,-4,-5,2,1,-29,1,-3
2545,-3,-4,3,3,1,-14,1,-3
2546,-3,-4,10,4,1,3,1,-3
2547,-2,-4,16,4,2,15,2,-3
2548,-2,-3,18,5,2,20,3,-2
2549,-1,-2,16,5,2,17,4,-1
2550,0,-1,13,5,3,8,5,0
2551,1,-1,9,5,3,-3,6,1
2552,1,-1,7,5,3,-10,7,2
2553,1,-1,6,4,3,-11,7,2
2554,0,-1,6,3,3,-12,7,1
2555,-1,-1,5,3,3,-14,7,1
2556,-1,0,3,3,3,-16,8,1
2557,-1,0,2,3,2,-17,8,1
2558,-1,0,2,4,2,-16,7,1
2559,0,0,3,5,1,-13,7,1
2560,1,0,6,6,0,-7,6,0
2561,1,-1,8,6,-1,-2,5,-1
2562,2,-2,9,6,-1,1,5,-2
2563,2,-3,10,5,-2,2,4,-2
2564,2,-4,11,5,-2,3,3,-3
2565,2,-5,12,5,-2,6,3,-4
2566,1,-6,12,5,-1,7,2,-4
2567,1,-6,10,4,-1,6,3,-5
2568,1,-6,9,4,0,3,3,-5
2569,2,-6,8,3,1,3,4,-4
2570,2,-6,7,3,1,5,3,-3
2571,3,-6,7,2,2,5,3,-3
2572,4,-6,5,2,3,2,3,-3
2573,4,-6,2,2,3,-3,3,-2
2574,4,-6,-1,1,4,-8,3,-2
2575,5,-5,-2,1,5,-10,3,-2
2576,4,-5,-1,0,6,-8,3,-2
2577,4,-4,3,-1,7,0,2,-2
2578,3,-4,6,-2,8,8,1,-2
2579,2,-3,8,-3,8,11,0,-2
2580,1,-3,8,-3,9,9,-1,-2
2581,1,-2,7,-4,9,4,-2,-2
2582,1,-2,5,-4,9,-2,-2,-2
2583,2,-2,2,-4,8,-8,-2,-2
2584,4,-3,0,-4,8,-12,-1,-2
2585,5,-4,-2,-5,8,-14,0,-2
2586,5,-5,-4,-5,8,-15,0,-3
2587,5,-5,-4,-6,8,-15,1,-3
2588,5,-4,-4,-7,8,-14,0,-3
2589,4,-3,-4,-7,8,-13,-1,-2
2590,4,-2,-5,-8,9,-14,-1,-1
2591,5,-1,-5,-8,10,-15,-1,1
2592,6,-1,-6,-7,11,-18,0,1
2593,7,-2,-7,-7,12,-22,1,2
2594,9,-4,-6,-6,12,-24,2,2
2595,10,-5,-5,-5,12,-25,2,2
2596,11,-7,-3,-5,11,-22,1,2
2597,11,-8,0,-5,9,-17,0,2
2598,11,-9,2,-6,9,-12,-1,1
2599,10,-9,4,-7,8,-10,-2,1
2600,9,-10,5,-8,8,-11,-2,0
2601,9,-11,6,-8,8,-11,-2,-1
2602,9,-11,6,-9,8,-11,-1,-1
2603,9,-11,7,-10,9,-10,-1,-1
2604,9,-11,7,-10,9,-7,0,-1
2605,10,-11,7,-10,10,-3,0,0
2606,10,-10,6,-10,10,-1,1,1
2607,11,-9,5,-10,10,-3,1,1
2608,11,-8,5,-9,10,-4,2,2
2609,12,-8,5,-8,10,-3,3,3
2610,13,-7,4,-7,10,-3,4,4
2611,13,-7,3,-6,10,-4,5,4
2612,14,-7,2,-6,9,-4,6,5
2613,15,-7,1,-5,9,-4,6,4
2614,15,-6,1,-5,9,-5,7,4
2615,14,-6,1,-5,8,-6,7,3
2616,13,-5,2,-4,8,-5,6,3
2617,11,-4,5,-4,8,1,5,3
2618,8,-4,9,-4,8,8,4,3
2619,6,-4,13,-5,7,13,3,3
2620,5,-4,17,-5,7,17,2,3
2621,5,-4,20,-5,7,21,2,3
2622,5,-4,21,-5,7,23,3,2
2623,5,-3,22,-5,7,23,3,2
2624,5,-3,22,-5,7,22,3,3
2625,5,-3,21,-5,8,22,2,3
2626,5,-3,21,-4,9,20,2,4
2627,6,-2,19,-3,10,17,2,5
2628,7,-1,17,-3,11,14,3,6
2629,8,0,17,-2,12,13,3,7
2630,9,1,17,-2,12,14,3,8
2631,9,1,17,-1,12,16,4,9
2632,9,2,18,0,12,16,4,10
2633,10,3,18,1,12,16,4,10
2634,10,4,18,1,11,17,4,11
2635,10,5,18,1,11,19,4,12
2636,10,5,18,1,11,22,5,11
2637,10,5,18,1,10,22,5,11
2638,10,5,16,1,9,21,5,10
2639,9,4,12,1,8,18,6,8
2640,9,3,8,2,7,13,6,7
2641,9,2,4,2,6,8,6,5
2642,10,2,1,2,5,3,7,4
2643,10,1,-1,2,5,-1,7,3
2644,9,-1,-2,1,4,-8,7,2
2645,9,-3,-3,1,4,-14,7,2
2646,9,-5,-3,-1,4,-18,7,1
2647,8,-7,-4,-2,5,-18,6,1
2648,8,-10,-3,-3,4,-13,6,0
2649,8,-11,-2,-4,4,-7,5,-1
2650,8,-12,-2,-5,3,-3,4,-1
2651,8,-12,-2,-5,3,-3,3,-2
2652,7,-11,-3,-6,3,-5,2,-2
2653,5,-10,-4,-5,3,-6,0,-2
2654,4,-10,-3,-5,4,-7,-1,-1
2655,3,-8,-3,-5,5,-6,-2,-1
2656,3,-7,-2,-5,5,-5,-2,-1
2657,2,-5,-2,-4,6,-5,-2,0
2658,2,-4,-2,-4,7,-4,-2,1
2659,2,-2,0,-5,7,1,-2,1
2660,2,-2,1,-5,7,6,-2,2
2661,3,-1,0,-5,6,5,-1,3
2662,4,-1,-4,-4,6,-2,-1,5
2663,6,-1,-7,-3,6,-10,1,6
2664,7,-2,-10,-2,6,-20,2,6
2665,7,-2,-14,-2,6,-30,2,6
2666,6,-2,-18,-3,6,-37,3,5
2667,5,-2,-22,-4,5,-40,3,4
2668,5,-2,-25,-5,4,-43,3,3
2669,4,-3,-28,-4,2,-46,3,2
2670,4,-4,-30,-3,0,-49,4,0
2671,4,-5,-31,-2,-2,-50,5,-2
2672,3,-6,-32,-1,-3,-51,6,-3
2673,3,-6,-32,-1,-4,-54,6,-3
2674,2,-6,-33,0,-4,-57,6,-3
2675,2,-6,-33,0,-4,-59,6,-3
2676,2,-6,-31,0,-4,-58,5,-3
2677,2,-7,-28,-1,-4,-55,4,-3
2678,3,-7,-26,-1,-4,-53,3,-3
2679,3,-6,-26,-2,-4,-53,2,-2
2680,3,-4,-26,-2,-3,-52,0,-2
2681,2,-3,-24,-2,-3,-47,-1,-1
2682,1,0,-21,-2,-4,-39,-2,0
2683,1,2,-19,-2,-4,-33,-3,1
2684,0,4,-17,-1,-4,-30,-4,2
2685,0,5,-16,-1,-3,-27,-5,3
2686,-1,6,-13,-1,-2,-24,-6,4
2687,-1,6,-10,-1,-1,-20,-6,4
2688,-1,5,-7,-2,-1,-14,-7,4
2689,-2,4,-4,-3,-1,-8,-7,3
2690,-2,2,-3,-4,-1,-5,-6,3
2691,-2,0,-3,-4,-1,-4,-6,2
2692,-2,-1,-3,-4,-1,-4,-6,1
2693,-2,-2,-2,-5,-1,0,-6,-1
2694,-3,-4,0,-5,-2,5,-7,-2
2695,-4,-5,2,-6,-3,8,-8,-3
2696,-4,-5,2,-6,-3,7,-9,-3
2697,-5,-5,1,-6,-4,4,-8,-3
2698,-4,-5,0,-5,-4,2,-7,-2
2699,-3,-5,-1,-5,-4,2,-7,-2
2700,-3,-6,-1,-5,-4,4,-7,-2
2701,-3,-6,-1,-5,-4,6,-7,-3
2702,-3,-5,-3,-5,-3,5,-8,-3
2703,-3,-4,-5,-5,-3,1,-9,-3
2704,-3,-3,-8,-4,-3,-3,-9,-2
2705,-3,-1,-9,-3,-3,-4,-8,-2
2706,-2,1,-9,-2,-2,-3,-7,-3
2707,-1,2,-9,-2,-2,-3,-6,-3
2708,0,3,-9,-2,-2,-3,-5,-3
2709,0,3,-9,-2,-1,-3,-5,-3
2710,0,3,-10,-3,-1,-7,-5,-3
2711,0,3,-12,-3,-1,-12,-5,-2
2712,-1,3,-13,-4,-1,-18,-5,-1
2713,-2,2,-14,-4,-1,-23,-5,1
2714,-4,2,-14,-4,-1,-27,-7,1
2715,-5,3,-12,-5,-1,-26,-8,2
2716,-6,3,-8,-6,-1,-20,-9,1
2717,-6,2,-3,-6,-1,-8,-9,0
2718,-6,1,2,-7,-2,6,-8,-2
2719,-6,-1,4,-8,-3,17,-7,-4
2720,-5,-3,4,-9,-4,20,-6,-5
2721,-4,-4,1,-8,-5,18,-5,-6
2722,-4,-5,-2,-8,-6,16,-4,-6
2723,-3,-6,-4,-7,-7,17,-4,-7
2724,-3,-6,-4,-6,-7,23,-4,-7
2725,-3,-6,-2,-5,-6,31,-4,-7
2726,-4,-5,-1,-5,-6,37,-4,-7
2727,-3,-5,1,-4,-5,39,-5,-6
2728,-3,-5,2,-4,-4,39,-4,-5
2729,-2,-4,3,-3,-4,39,-4,-4
2730,-1,-3,3,-2,-3,40,-4,-3
2731,1,-2,3,-1,-3,41,-3,-3
2732,1,-1,1,1,-2,40,-3,-2
2733,2,1,-3,3,-2,36,-2,-1
2734,2,3,-7,5,-1,29,-1,0
2735,2,4,-9,6,0,25,0,0
2736,1,5,-9,6,0,26,0,0
2737,-1,5,-8,6,0,27,-1,-1
2738,-2,5,-6,5,-1,27,-2,-1
2739,-4,5,-4,4,0,25,-2,-1
2740,-4,5,-3,4,0,23,-2,-1
2741,-5,4,-1,4,1,23,-1,-1
2742,-4,3,-1,4,1,23,-1,-1
2743,-3,2,-1,4,1,23,0,-1
2744,-3,1,-1,4,0,23,0,-1
2745,-2,1,-1,4,-1,23,1,-1
2746,-1,0,-2,4,-2,24,1,-1
2747,0,0,-4,3,-3,23,1,-1
2748,0,0,-7,3,-4,20,1,-1
2749,1,1,-11,4,-4,15,1,-1
2750,1,1,-15,5,-4,9,1,-2
2751,1,1,-18,6,-4,5,2,-2
2752,1,1,-19,7,-4,5,3,-2
2753,1,2,-19,8,-3,6,5,-1
2754,1,3,-18,9,-3,8,6,0
2755,2,5,-17,10,-2,8,8,1
2756,2,7,-16,11,-2,6,10,2
2757,3,8,-14,12,-1,3,11,3
2758,4,9,-13,13,-1,-1,11,5
2759,5,9,-13,14,0,-3,11,5
2760,5,9,-12,13,-1,-4,10,6
2761,5,9,-10,12,-1,-4,8,6
2762,4,8,-8,10,-1,-2,7,5
2763,4,7,-5,8,0,2,5,5
2764,3,6,-2,6,0,6,4,4
2765,3,5,1,5,1,8,2,3
2766,2,4,1,4,1,6,1,2
2767,2,3,1,4,2,2,1,2
2768,2,3,1,4,2,-1,0,1
2769,1,2,1,3,2,-3,0,1
2770,1,1,0,2,2,-4,0,1
2771,1,-2,0,1,2,-2,-1,1
2772,2,-5,2,0,1,4,-1,1
2773,3,-8,4,-1,1,10,-2,0
2774,3,-10,5,-2,1,13,-2,0
2775,3,-12,4,-2,0,11,-2,-1
2776,3,-12,2,-2,0,7,-2,-1
2777,1,-10,1,-2,0,4,-2,0
2778,0,-8,-1,-2,0,3,-2,1
2779,-1,-6,-2,-2,0,5,-1,1
2780,-2,-4,-1,-2,0,9,-2,2
2781,-3,-3,0,-2,0,12,-2,1
2782,-3,-2,0,-2,0,12,-3,1
2783,-2,0,0,-2,0,11,-3,1
2784,-2,1,0,-3,0,11,-4,1
2785,-1,1,1,-3,-1,11,-4,1
2786,-1,2,1,-2,-1,11,-4,2
2787,-1,4,1,-1,-1,11,-3,3
2788,-1,6,0,1,-1,9,-2,3
2789,-2,7,0,2,-1,9,-1,4
2790,-2,8,1,3,-1,13,0,4
2791,-3,8,3,3,-1,20,1,3
2792,-4,7,6,3,0,26,1,2
2793,-5,6,8,3,1,28,1,2
2794,-5,6,9,2,1,29,1,1
2795,-6,6,11,1,1,32,0,1
2796,-5,5,13,0,1,36,0,1
2797,-4,5,16,-1,1,41,-1,1
2798,-2,3,17,-1,0,42,-1,1
2799,-1,2,17,-2,0,39,-1,1
2800,0,0,16,-2,0,34,-1,0
2801,1,-1,13,-2,-1,28,-1,0
2802,1,-2,11,-2,-1,23,-1,0
2803,2,-2,9,-1,-2,20,-1,0
2804,2,-3,7,0,-3,17,-1,-1
2805,2,-3,4,1,-4,13,-1,-1
2806,2,-2,1,2,-4,8,-1,-1
2807,2,-2,-1,2,-4,6,-2,-1
2808,1,0,-2,1,-4,7,-2,1
2809,0,2,-1,0,-4,8,-2,2
2810,-1,4,0,-1,-3,9,-2,2
2811,-1,5,1,-1,-2,7,-1,3
2812,-1,6,2,-1,-2,5,0,3
2813,-1,7,4,-1,-1,5,1,3
2814,-1,7,7,0,-1,7,1,3
2815,-1,7,10,1,-1,9,1,4
2816,-1,8,13,2,0,12,1,4
2817,-1,8,17,3,0,17,1,4
2818,-2,7,21,3,-1,22,1,4
2819,-4,6,25,3,-1,26,2,3
2820,-5,4,27,2,-1,28,2,1
2821,-6,2,29,1,-1,30,1,1
2822,-6,0,30,-1,-2,33,0,0
2823,-7,-2,30,-2,-2,35,-1,-1
2824,-7,-3,27,-3,-3,35,-2,-1
2825,-7,-4,22,-3,-3,33,-3,-1
2826,-7,-6,18,-4,-3,29,-3,-1
2827,-7,-6,13,-4,-3,25,-4,-1
2828,-7,-7,11,-4,-3,25,-3,-1
2829,-6,-6,11,-4,-4,28,-2,-2
2830,-5,-6,12,-4,-4,33,-1,-2
2831,-3,-4,12,-3,-3,35,1,-2
2832,-2,-3,11,-1,-3,31,3,-1
2833,0,-2,9,1,-1,25,4,0
2834,2,-1,8,2,-1,21,5,1
2835,3,0,8,3,0,22,5,2
2836,5,1,9,3,-1,26,5,2
2837,6,1,10,4,-1,30,5,2
2838,6,0,10,4,-1,33,5,2
2839,7,-1,11,4,-1,33,6,2
2840,6,-2,11,5,0,32,6,1
2841,6,-3,13,5,0,33,6,2
2842,5,-3,16,5,0,36,5,2
2843,4,-3,20,4,0,37,4,2
2844,3,-4,24,3,0,38,3,3
2845,1,-5,28,1,1,38,1,3
2846,-2,-6,32,-1,1,39,-2,3
2847,-4,-7,35,-3,1,38,-4,2
2848,-7,-8,35,-5,1,34,-5,1
2849,-8,-9,33,-6,1,29,-6,0
2850,-9,-10,30,-6,0,25,-6,-2
2851,-9,-10,27,-7,-1,22,-6,-2
2852,-8,-11,24,-7,-2,20,-5,-3
2853,-6,-11,22,-7,-3,20,-4,-3
2854,-4,-12,22,-7,-3,23,-3,-3
2855,-2,-11,21,-6,-3,26,-2,-2
2856,0,-10,20,-5,-4,27,-1,-1
2857,2,-9,17,-4,-4,26,-1,-1
2858,2,-7,12,-3,-4,22,-1,0
2859,2,-4,7,-1,-5,16,-1,0
2860,2,-1,3,1,-5,11,0,1
2861,3,2,0,4,-5,9,2,2
2862,4,4,-1,6,-4,9,4,3
2863,5,6,-2,8,-3,7,6,4
2864,5,7,-2,9,-1,2,8,5
2865,5,7,-2,9,0,-4,9,5
2866,4,6,-2,9,1,-8,9,4
2867,4,5,1,7,2,-8,8,3
2868,2,3,4,5,3,-6,6,3
2869,1,3,7,2,3,-5,3,3
2870,-2,2,10,-1,4,-5,1,3
2871,-4,1,13,-4,4,-7,-1,3
2872,-5,0,17,-5,4,-6,-3,3
2873,-7,-2,22,-6,3,0,-5,2
2874,-8,-4,27,-8,1,9,-6,2
2875,-8,-6,30,-9,-1,14,-7,1
2876,-8,-7,28,-10,-2,13,-8,0
2877,-8,-9,22,-10,-3,4,-8,-1
2878,-8,-10,15,-10,-4,-8,-8,-2
2879,-8,-11,9,-10,-5,-19,-7,-4
2880,-8,-11,5,-9,-5,-25,-6,-5
2881,-8,-11,4,-8,-5,-24,-6,-6
2882,-7,-9,6,-6,-5,-18,-5,-5
2883,-6,-6,11,-3,-4,-7,-3,-4
2884,-4,-3,16,0,-3,6,-2,-2
2885,-3,0,22,3,-2,20,0,-1
2886,-1,2,25,5,-1,28,1,2
2887,0,5,23,8,1,25,3,4
2888,2,8,17,10,2,13,5,7
2889,4,10,11,12,4,-2,7,9
2890,6,11,5,15,5,-16,9,10
2891,8,12,2,17,6,-23,11,11
2892,9,11,1,18,6,-26,12,10
2893,9,10,2,18,6,-23,12,9
2894,8,8,4,16,5,-18,11,8
2895,6,7,6,14,4,-13,9,6
2896,4,4,9,11,3,-9,7,5
2897,1,2,15,8,2,-5,5,3
2898,-1,-1,23,4,1,-1,2,1
2899,-3,-4,32,1,0,0,-1,-1
2900,-5,-6,39,-2,0,-1,-4,-2
2901,-6,-7,44,-5,-1,-1,-6,-3
2902,-7,-8,47,-7,-2,1,-7,-4
2903,-7,-9,48,-8,-4,6,-8,-4
2904,-7,-9,48,-8,-5,11,-8,-5
2905,-7,-9,46,-8,-6,16,-9,-6
2906,-7,-10,43,-8,-8,17,-9,-7
2907,-8,-10,40,-8,-8,15,-8,-8
2908,-9,-10,36,-8,-8,10,-8,-9
2909,-9,-9,33,-7,-8,3,-8,-10
2910,-9,-9,30,-7,-7,-7,-8,-9
2911,-8,-8,28,-6,-5,-14,-8,-9
2912,-7,-7,28,-5,-3,-17,-8,-7
2913,-6,-6,28,-4,-1,-14,-7,-6
2914,-5,-5,28,-3,0,-10,-6,-5
2915,-3,-3,26,-2,2,-6,-5,-4
2916,-2,-1,24,-1,3,-4,-4,-2
2917,1,2,21,1,4,-4,-2,0
2918,4,4,17,4,5,-6,0,3
2919,6,5,13,7,6,-9,2,5
2920,8,6,11,9,7,-14,4,6
2921,10,6,9,10,7,-17,4,7
2922,10,6,11,11,8,-18,5,7
2923,10,6,14,11,8,-16,5,8
2924,9,6,17,11,8,-13,4,8
2925,9,5,21,10,8,-10,4,8
2926,8,5,24,10,8,-5,4,8
2927,7,5,27,10,8,2,4,8
2928,6,4,30,10,7,9,3,8
2929,5,4,31,9,6,14,2,8
2930,4,3,30,7,5,14,1,7
2931,2,3,28,5,4,9,-1,7
2932,0,2,27,3,2,3,-2,6
2933,-1,1,26,1,0,2,-3,4
2934,-3,-1,26,-1,-2,4,-4,2
2935,-4,-2,25,-3,-4,5,-5,0
2936,-5,-2,24,-4,-4,4,-5,-2
2937,-5,-2,23,-4,-4,0,-5,-3
2938,-5,0,20,-4,-4,-5,-4,-3
2939,-5,2,18,-4,-3,-9,-3,-3
2940,-4,3,16,-4,-2,-9,-2,-2
2941,-3,4,16,-4,-3,-3,-2,-1
2942,-2,4,20,-3,-3,10,-2,-1
2943,-2,5,25,-2,-3,27,-2,-1
2944,-1,6,30,-1,-3,45,-2,-1
2945,0,6,35,0,-3,61,-3,-1
2946,0,8,39,1,-2,74,-3,0
2947,1,9,42,2,-1,81,-3,1
2948,1,10,44,3,1,87,-2,2
2949,1,10,47,4,2,93,-2,3
2950,1,10,48,3,3,99,-2,4
2951,0,10,49,3,4,101,-2,5
2952,-1,8,49,1,4,100,-3,5
2953,-2,7,50,-1,3,99,-4,4
2954,-3,4,52,-3,3,100,-5,3
2955,-5,2,52,-4,2,100,-7,2
2956,-6,-1,51,-5,2,96,-7,1
2957,-7,-2,49,-6,1,91,-8,-1
2958,-7,-3,47,-6,0,85,-7,-2
2959,-8,-4,46,-6,-1,88,-6,-4
2960,-9,-5,49,-7,-1,101,-5,-6
2961,-9,-5,54,-8,-2,121,-4,-7
2962,-8,-6,59,-9,-3,140,-3,-8
2963,-8,-7,64,-9,-3,158,-3,-9
2964,-8,-8,69,-10,-4,176,-3,-10
2965,-8,-8,73,-11,-3,193,-3,-10
2966,-9,-7,76,-11,-3,207,-3,-10
2967,-9,-6,78,-12,-2,221,-4,-10
2968,-10,-5,81,-12,-1,235,-4,-9
2969,-10,-3,83,-11,-1,247,-4,-8
2970,-9,-2,83,-10,0,254,-3,-7
2971,-7,1,81,-7,1,256,-1,-6
2972,-5,3,78,-5,2,252,2,-5
2973,-3,6,76,-3,2,247,4,-4
2974,-2,8,75,-1,3,245,6,-3
2975,-2,10,75,0,3,246,7,-2
2976,-2,10,76,0,4,248,8,-2
2977,-2,9,79,0,5,252,8,-2
2978,-2,7,84,-1,6,262,8,-2
2979,-2,5,91,-1,6,281,7,-3
2980,-2,2,98,-2,5,305,6,-3
2981,-1,1,102,-3,4,325,6,-4
2982,-1,0,105,-3,4,341,6,-5
2983,-1,1,108,-3,4,358,7,-5
2984,0,2,115,-2,3,384,7,-6
2985,0,3,125,-2,3,415,8,-6
2986,0,4,134,-2,2,443,8,-6
2987,-1,5,138,-3,2,460,8,-6
2988,-1,5,139,-3,2,467,8,-7
2989,-1,4,139,-4,1,468,7,-7
2990,-1,2,139,-4,1,470,6,-7
2991,-1,-1,138,-5,0,470,5,-8
2992,-1,-2,136,-6,-1,466,4,-8
2993,-1,-3,131,-6,-2,456,3,-8
2994,-1,-2,127,-7,-3,445,2,-8
2995,-2,-2,125,-6,-3,440,2,-7
2996,-2,0,125,-6,-3,442,2,-7
2997,-2,0,124,-5,-3,445,2,-6
2998,-2,1,121,-5,-4,442,2,-6
2999,-2,1,115,-4,-4,432,2,-6
3000,-2,1,112,-4,-4,421,2,-5
3001,-2,2,111,-3,-4,415,1,-4
3002,-2,3,109,-3,-4,412,1,-4
3003,-2,4,105,-3,-4,405,1,-3
3004,-2,5,98,-3,-4,392,1,-2
3005,-1,5,92,-3,-3,380,2,-1
3006,0,6,90,-2,-3,376,3,-1
3007,0,5,90,-1,-3,378,3,0
3008,1,5,90,-1,-4,378,3,-1
3009,2,4,88,0,-5,374,3,-1
3010,2,2,85,0,-6,367,3,-3
3011,3,1,83,0,-7,358,4,-4
3012,4,0,81,0,-7,349,4,-5
3013,4,-1,77,1,-7,338,4,-5
3014,4,-1,73,1,-6,325,4,-5
3015,4,-1,69,1,-5,312,4,-5
3016,4,-2,68,2,-5,304,4,-5
3017,3,-2,68,2,-5,303,4,-5
3018,3,-2,67,2,-5,301,4,-5
3019,3,-1,65,2,-6,294,4,-5
3020,3,0,62,2,-6,284,3,-4
3021,2,1,61,1,-7,275,3,-4
3022,1,1,61,1,-7,270,3,-4
3023,0,2,60,1,-6,263,3,-4
3024,0,4,56,2,-6,253,4,-3
3025,-1,5,52,3,-4,240,5,-2
3026,-1,7,49,5,-3,228,6,1
3027,0,9,47,6,-1,220,7,3
3028,1,10,47,7,1,216,8,4
3029,2,10,48,7,2,213,8,5
3030,3,10,49,7,3,209,8,6
3031,4,11,49,6,4,203,7,6
3032,4,10,48,5,4,196,6,5
3033,3,10,47,4,3,191,5,3
3034,2,9,44,2,2,184,5,2
3035,0,7,42,1,1,177,3,0
3036,-1,5,40,-1,-1,171,3,-1
3037,-2,3,41,-2,-2,168,2,-2
3038,-3,1,42,-3,-3,167,2,-3
3039,-4,0,41,-4,-4,163,1,-4
3040,-6,-1,39,-5,-4,155,0,-4
3041,-7,-1,35,-6,-4,145,0,-5
3042,-8,-1,32,-6,-4,135,-1,-6
3043,-8,-1,28,-6,-4,127,-1,-7
3044,-8,-2,25,-6,-5,121,-1,-8
3045,-8,-2,22,-6,-4,112,0,-8
3046,-7,-2,19,-5,-4,102,1,-8
3047,-7,-1,18,-5,-3,94,1,-8
3048,-6,0,19,-4,-1,88,2,-7
3049,-5,1,21,-3,0,85,2,-7
3050,-4,2,23,-3,1,84,2,-6
3051,-3,2,24,-4,1,85,2,-6
3052,-4,1,25,-5,1,85,1,-7
3053,-5,0,26,-6,0,87,0,-7
3054,-6,0,27,-6,-2,89,0,-7
3055,-7,-1,27,-6,-3,89,0,-7
3056,-7,-1,25,-5,-4,85,1,-7
3057,-7,-1,21,-3,-4,79,2,-7
3058,-6,-1,17,-2,-5,72,3,-7
3059,-5,-1,14,-1,-5,68,4,-7
3060,-5,-2,12,-1,-5,65,3,-7
3061,-5,-2,12,-1,-5,61,2,-7
3062,-5,-2,11,-1,-5,56,1,-6
3063,-5,-2,10,-1,-5,51,0,-5
3064,-5,-2,9,0,-4,46,-1,-4
3065,-5,-1,7,1,-3,40,-1,-3
3066,-5,-1,5,2,-2,36,-1,-2
3067,-4,0,4,3,-1,34,0,-2
3068,-4,0,4,3,0,34,1,-2
3069,-3,0,3,4,0,33,2,-3
3070,-2,-1,1,4,1,31,4,-3
3071,-2,-1,-2,4,1,27,5,-3
3072,-1,-1,-4,3,1,23,5,-3
3073,-1,-1,-5,2,0,21,5,-3
3074,-1,-1,-5,2,0,22,4,-3
3075,0,-2,-3,2,-1,23,4,-3
3076,1,-2,-1,2,-1,24,4,-4
3077,2,-3,1,2,-1,22,4,-4
3078,3,-3,4,2,-1,21,5,-4
3079,4,-3,5,3,-1,22,5,-4
3080,4,-2,6,2,-2,24,5,-3
3081,3,-2,6,1,-2,26,4,-3
3082,2,-2,6,0,-3,28,2,-3
3083,1,-2,5,-1,-4,29,1,-3
3084,1,-2,3,-1,-4,29,0,-3
3085,2,-2,0,-2,-4,26,0,-3
3086,2,-1,-6,-1,-4,17,0,-2
3087,3,0,-13,0,-3,4,0,-1
3088,3,1,-19,1,-2,-10,1,0
3089,2,1,-22,2,-2,-19,1,1
3090,1,2,-22,2,-1,-24,0,1
3091,0,3,-22,2,-1,-27,-1,1
3092,-1,3,-21,2,0,-31,-1,1
3093,-1,4,-20,1,0,-38,-1,1
3094,-1,4,-22,1,0,-51,-2,1
3095,0,5,-26,1,0,-71,-2,2
3096,1,5,-34,1,1,-100,-2,3
3097,2,5,-46,2,1,-138,-2,4
3098,4,5,-62,2,1,-186,-2,5
3099,6,4,-84,3,2,-252,-2,5
3100,7,3,-116,3,1,-345,-1,4
3101,9,2,-164,3,1,-486,-1,2
3102,9,1,-231,2,-1,-690,-1,1
3103,8,-1,-313,2,-2,-948,-1,-1
3104,8,-2,-397,2,-2,-1223,0,-2
3105,6,-3,-469,1,-2,-1477,1,-2
3106,5,-3,-520,1,-2,-1674,0,-2
3107,4,-3,-541,0,-2,-1792,-1,-1
3108,4,-2,-536,0,-2,-1823,-1,1
3109,4,-1,-511,1,-1,-1787,-1,2
3110,4,-1,-478,1,-1,-1712,0,3
3111,5,-1,-445,2,0,-1623,1,3
3112,6,-1,-414,2,1,-1527,3,4
3113,7,-1,-382,2,1,-1424,4,4
3114,8,0,-347,1,1,-1310,5,4
3115,9,1,-312,1,2,-1191,5,4
3116,9,2,-279,0,2,-1080,5,4
3117,8,3,-252,0,2,-982,4,5
3118,7,3,-229,-1,1,-899,3,5
3119,5,3,-208,-1,1,-826,1,5
3120,4,3,-188,-2,1,-757,1,4
3121,3,4,-171,-1,1,-694,0,4
3122,3,4,-157,0,1,-638,1,3
3123,2,5,-144,0,0,-590,2,3
3124,2,5,-134,1,-1,-548,2,4
3125,2,6,-123,0,-1,-504,2,4
3126,1,6,-109,-1,-2,-454,2,4
3127,1,5,-96,-2,-2,-404,1,4
3128,1,5,-86,-4,-2,-361,0,3
3129,0,4,-81,-5,-2,-330,0,2
3130,0,3,-77,-7,-2,-307,-1,1
3131,0,2,-73,-8,-2,-287,-2,-1
3132,1,1,-68,-9,-2,-268,-4,-1
3133,1,-1,-65,-9,-2,-254,-5,-2
3134,2,-3,-64,-9,-2,-244,-6,-2
3135,3,-4,-63,-9,-1,-234,-5,-2
3136,4,-4,-59,-8,-1,-218,-5,-2
3137,4,-4,-53,-7,0,-197,-4,-2
3138,4,-4,-48,-5,-1,-177,-4,-1
3139,3,-4,-45,-4,-1,-164,-3,-1
3140,3,-3,-43,-2,-2,-153,-3,0
3141,2,-2,-39,-1,-3,-138,-2,0
3142,1,-2,-34,-1,-4,-118,-2,0
3143,0,-1,-30,-1,-4,-99,-2,-1
3144,-1,-1,-28,-2,-3,-85,-2,-1
3145,-2,-1,-27,-3,-2,-76,-1,-2
3146,-2,-1,-26,-2,-1,-70,-1,-1
3147,-1,-1,-24,-2,1,-62,0,-1
3148,-1,-2,-22,-1,2,-52,1,-1
3149,0,-2,-20,0,2,-43,2,-1
3150,0,-2,-18,0,2,-37,3,-1
3151,0,-3,-16,-1,1,-28,2,-2
3152,0,-4,-12,-2,0,-15,2,-3
3153,0,-4,-9,-3,-1,-3,2,-3
3154,0,-4,-8,-4,-2,4,2,-4
3155,1,-5,-9,-4,-2,4,2,-4
3156,1,-6,-10,-5,-2,2,2,-4
3157,2,-7,-10,-5,-2,4,3,-4
3158,4,-8,-9,-5,-1,9,4,-4
3159,4,-8,-8,-4,0,13,4,-4
3160,4,-8,-8,-4,1,14,4,-4
3161,4,-8,-8,-4,1,16,3,-4
3162,3,-7,-6,-4,1,19,3,-4
3163,2,-6,-3,-4,1,27,2,-4
3164,1,-6,2,-5,1,37,1,-4
3165,2,-5,6,-4,1,46,1,-3
3166,3,-5,9,-4,1,52,1,-3
3167,4,-4,11,-3,2,56,1,-2
3168,4,-4,13,-2,2,59,2,-1
3169,5,-3,15,-1,3,62,3,0
3170,6,-2,16,1,3,62,4,0
3171,6,-1,15,3,3,60,5,1
3172,6,-1,14,4,3,58,6,1
3173,6,-1,13,5,3,58,6,1
3174,5,0,12,4,3,61,5,1
3175,4,0,11,4,3,62,5,1
3176,3,0,10,3,3,60,4,0
3177,3,0,10,2,4,55,4,0
3178,2,0,9,1,4,50,4,-1
3179,2,-1,7,0,3,49,4,-2
3180,2,-2,6,-1,3,50,4,-2
3181,2,-3,6,-2,2,54,3,-3
3182,2,-3,6,-2,2,57,3,-3
3183,1,-3,7,-2,2,58,2,-3
3184,1,-3,9,-1,2,60,1,-3
3185,2,-1,11,0,3,61,1,-2
3186,2,0,10,1,4,60,1,-2
3187,3,1,8,2,4,55,2,-1
3188,4,2,6,2,4,49,3,-1
3189,4,3,6,2,3,46,4,-1
3190,4,3,6,2,3,43,4,-1
3191,3,3,8,2,3,43,4,-1
3192,3,3,9,2,3,44,3,-1
3193,2,4,11,2,4,46,3,0
3194,1,6,12,2,4,49,3,1
3195,0,7,13,3,4,53,3,2
3196,-1,7,14,3,5,56,3,2
3197,-2,6,18,3,4,60,2,2
3198,-3,6,21,2,4,62,1,2
3199,-3,5,23,1,4,62,-1,2
3200,-4,4,24,0,4,60,-2,2
3201,-4,4,24,1,4,56,-2,2
3202,-4,4,23,1,4,53,-3,3
3203,-3,4,23,2,4,51,-3,3
3204,-3,4,23,2,3,53,-3,3
3205,-3,4,23,2,3,54,-4,3
3206,-3,4,21,1,2,54,-4,3
3207,-4,4,20,0,1,54,-4,2
3208,-4,3,18,-1,0,53,-4,2
3209,-4,2,14,-2,-1,47,-4,2
3210,-4,1,9,-2,-1,38,-4,2
3211,-5,1,5,-3,-1,28,-4,2
3212,-6,1,3,-3,-1,23,-4,2
3213,-8,1,6,-4,-1,28,-5,1
3214,-8,1,12,-4,-1,41,-5,1
3215,-8,2,19,-4,0,55,-5,1
3216,-8,2,23,-3,0,65,-5,1
3217,-8,3,24,-3,1,66,-5,1
3218,-7,3,22,-2,2,61,-4,1
3219,-7,2,19,-2,2,54,-5,1
3220,-7,2,17,-2,1,48,-5,1
3221,-7,2,16,-2,1,41,-6,1
3222,-7,2,15,-2,1,36,-7,1
3223,-7,3,13,-2,1,32,-7,1
3224,-7,4,12,-2,1,31,-7,1
3225,-7,5,12,-1,1,31,-7,1
3226,-7,5,11,0,1,30,-6,1
3227,-6,4,10,2,1,29,-5,1
3228,-6,4,10,3,1,30,-4,1
3229,-5,4,11,4,1,33,-3,2
3230,-4,5,10,5,0,34,-2,2
3231,-4,5,8,5,-1,32,-2,3
3232,-3,5,5,4,-2,25,-2,3
3233,-2,4,3,4,-1,18,-2,3
3234,-1,3,2,4,0,14,-1,3
3235,2,1,2,3,1,14,0,2
3236,4,-1,2,3,2,15,0,1
3237,6,-3,0,4,3,13,0,1
3238,7,-4,-2,5,3,7,0,1
3239,7,-4,-5,5,3,-1,0,1
3240,7,-4,-7,6,3,-7,0,1
3241,7,-4,-7,6,3,-10,0,0
3242,6,-4,-6,6,3,-10,0,-1
3243,6,-5,-5,5,2,-10,-1,-1
3244,5,-5,-5,4,1,-11,-2,-2
3245,4,-5,-4,4,0,-12,-2,-2
3246,4,-5,-3,3,-1,-12,-2,-2
3247,4,-5,-3,3,-1,-10,-2,-2
3248,3,-5,-3,2,-1,-9,-2,-2
3249,3,-4,-3,2,-1,-9,-2,-3
3250,2,-4,-5,2,-1,-12,-2,-3
3251,2,-3,-6,3,-1,-17,-2,-2
3252,2,-2,-8,4,-2,-21,-2,-2
3253,2,-1,-9,5,-3,-24,-1,-1
3254,2,0,-10,5,-3,-26,0,-1
3255,1,1,-10,5,-4,-26,1,-1
3256,0,2,-9,5,-4,-23,1,-2
3257,0,2,-9,4,-5,-20,1,-2
3258,0,1,-9,3,-4,-20,0,-2
3259,0,1,-10,3,-4,-24,-1,-1
3260,-1,1,-11,3,-2,-30,-1,0
3261,-1,2,-12,3,-1,-33,-1,1
3262,-2,3,-12,3,0,-34,-1,1
3263,-4,3,-11,2,0,-31,-1,1
3264,-5,3,-9,1,0,-24,-2,0
3265,-6,2,-6,-1,-1,-17,-3,-1
3266,-7,1,-5,-2,-1,-14,-4,-2
3267,-7,0,-4,-3,-1,-14,-5,-3
3268,-7,-1,-3,-4,-2,-15,-5,-3
3269,-7,-1,-3,-5,-3,-14,-5,-4
3270,-7,-1,-3,-6,-3,-13,-5,-5
3271,-7,-1,-3,-7,-4,-13,-4,-6
3272,-6,-1,-3,-7,-3,-13,-4,-6
3273,-5,-2,-3,-8,-3,-12,-4,-6
3274,-4,-2,-1,-7,-1,-11,-3,-6
3275,-4,-1,1,-7,0,-9,-3,-5
3276,-4,-1,2,-6,1,-6,-3,-4
3277,-4,1,3,-5,1,-2,-3,-4
3278,-4,2,3,-5,2,3,-3,-3
3279,-4,2,2,-4,1,6,-3,-3
3280,-3,3,-1,-3,1,5,-2,-3
3281,-1,3,-3,-3,1,1,-1,-2
3282,0,4,-5,-2,2,-1,0,-1
3283,2,4,-6,-1,3,-1,2,0
3284,3,5,-5,1,4,2,3,2
3285,4,6,-3,1,4,8,4,2
3286,4,7,-1,2,4,12,4,3
3287,4,7,0,2,4,13,4,4
3288,3,8,0,2,4,12,3,4
3289,3,8,-1,1,4,10,2,5
3290,3,8,-3,1,4,8,1,5
3291,3,8,-4,0,3,7,0,5
3292,3,7,-5,-1,2,8,-1,4
3293,2,6,-4,-2,1,10,-1,3
3294,1,5,-2,-3,0,13,-2,2
3295,1,3,-1,-4,-1,15,-2,0
3296,1,2,0,-5,-1,16,-2,-1
3297,1,1,-1,-5,-1,13,-3,-1
3298,1,1,-2,-5,-2,9,-3,1
3299,1,1,-3,-4,-2,6,-3,2
3300,1,2,-5,-3,-2,4,-3,3
3301,1,2,-6,-2,-2,2,-3,3
3302,1,2,-8,-1,-2,-1,-2,3
3303,0,3,-10,0,-2,-4,-2,2
3304,0,4,-10,0,-1,-7,0,3
3305,0,4,-10,0,0,-7,1,3
3306,1,5,-10,0,1,-7,1,4
3307,1,6,-9,1,3,-6,2,4
3308,1,7,-9,1,4,-7,2,5
3309,2,8,-8,2,5,-8,2,5
3310,3,8,-7,3,6,-8,1,6
3311,3,8,-5,5,6,-6,1,6
3312,4,7,-3,5,5,-2,1,6
3313,5,6,-1,6,4,2,1,6
3314,5,4,0,6,3,4,1,6
3315,4,3,1,5,2,5,1,6
3316,3,2,2,4,1,8,0,6
3317,2,1,3,2,0,11,-1,6
3318,1,0,4,1,-1,12,-1,5
3319,0,-1,4,0,-2,12,-2,3
3320,-1,-2,4,-1,-2,11,-2,2
3321,-1,-2,4,-1,-3,11,-2,1
3322,-1,-2,4,-1,-3,11,-2,0
3323,0,-2,4,-1,-3,13,-1,-1
3324,1,-2,5,0,-2,17,-1,0
3325,2,-3,4,0,-1,20,-1,0
3326,2,-2,3,-1,-1,20,-2,1
3327,1,-2,2,-1,0,18,-2,1
3328,0,-1,3,-2,0,17,-2,2
3329,-2,-1,5,-3,-1,16,-3,1
3330,-3,-2,7,-4,-1,16,-3,1
3331,-3,-3,9,-5,-1,14,-3,0
3332,-3,-4,10,-5,0,12,-3,0
3333,-1,-4,11,-4,1,11,-3,-1
3334,1,-5,11,-3,1,11,-2,-1
3335,2,-5,12,-2,1,12,-2,0
3336,4,-5,11,-1,1,13,-1,1
3337,5,-4,10,-1,1,12,-1,3
3338,5,-3,10,-1,2,10,0,4
3339,5,-2,9,-1,3,10,0,5
3340,5,-1,8,-1,4,10,0,5
3341,4,-1,8,-2,4,11,0,4
3342,3,-2,8,-3,2,13,-1,3
3343,2,-2,7,-4,1,16,-2,3
3344,1,-2,7,-5,0,18,-3,2
3345,-1,-2,6,-6,-1,18,-4,2
3346,-2,-2,6,-6,-2,17,-5,2
3347,-3,-3,6,-6,-2,15,-6,1
3348,-3,-3,5,-5,-2,13,-6,1
3349,-2,-4,5,-5,-2,11,-6,0
3350,-2,-5,5,-4,-1,10,-5,-1
3351,-1,-5,5,-4,-1,10,-5,-1
3352,-1,-6,5,-4,0,10,-5,-1
3353,-1,-6,4,-5,0,9,-5,-1
3354,-1,-6,4,-5,1,8,-5,-1
3355,-1,-6,4,-5,1,10,-5,0
3356,-1,-5,4,-5,1,13,-5,1
3357,0,-3,4,-4,2,15,-4,2
3358,1,-2,3,-3,2,13,-3,3
3359,2,-2,1,-2,3,10,-2,3
3360,3,-2,-2,-2,2,7,-2,2
3361,3,-2,-3,-2,2,7,-1,2
3362,2,-3,-3,-3,1,10,-1,1
3363,2,-3,-2,-4,1,15,0,-1
3364,1,-3,-1,-4,0,20,0,-1
3365,0,-3,1,-3,1,24,0,-1
3366,-1,-2,4,-2,1,28,0,-2
3367,-1,-3,7,-2,2,31,0,-2
3368,-2,-3,9,-1,3,33,0,-2
3369,-2,-3,10,-1,3,30,0,-1
3370,-2,-4,10,-1,4,25,-1,0
3371,-2,-4,10,-1,4,21,-1,0
3372,-2,-5,9,-1,4,19,-1,0
3373,-2,-5,8,-2,4,20,-1,0
3374,-2,-5,7,-2,4,19,-2,0
3375,-2,-4,5,-2,4,18,-2,0
3376,-2,-2,2,-2,5,16,-2,0
3377,-2,-1,0,-1,5,13,-2,0
3378,-2,-1,-3,0,4,11,-1,0
3379,-2,-1,-6,1,3,8,0,0
3380,-1,-2,-10,2,2,4,1,-1
3381,-1,-3,-14,4,1,-2,2,-1
3382,0,-3,-17,5,1,-7,3,0
3383,1,-2,-17,5,1,-5,3,0
3384,1,-2,-12,6,1,4,4,1
3385,3,-1,-5,6,1,17,4,2
3386,4,-1,1,6,2,30,5,3
3387,6,-1,3,6,2,36,6,3
3388,7,-1,2,7,3,34,7,4
3389,9,-1,-3,7,3,27,8,4
3390,10,-1,-6,7,3,18,8,4
3391,10,-1,-8,7,3,10,8,4
3392,10,-1,-8,7,3,6,8,4
3393,9,-2,-8,7,4,4,7,4
3394,8,-2,-8,7,4,4,7,4
3395,8,-3,-7,7,4,5,6,4
3396,8,-4,-6,7,4,8,4,4
3397,8,-5,-4,6,3,13,3,3
3398,8,-6,-2,6,3,16,2,3
3399,8,-6,-2,6,3,15,3,2
3400,8,-6,-3,7,3,12,3,2
3401,9,-5,-5,7,2,9,4,2
3402,9,-5,-5,7,1,9,5,1
3403,8,-5,-5,6,0,11,5,0
3404,8,-6,-4,6,-2,15,5,-1
3405,8,-6,-3,5,-3,16,5,-2
3406,8,-6,-4,4,-3,13,4,-3
3407,8,-7,-7,4,-3,9,4,-3
3408,7,-6,-9,4,-3,7,4,-3
3409,7,-6,-11,4,-3,8,4,-2
3410,7,-6,-12,5,-2,10,4,-2
3411,8,-6,-13,6,-2,9,4,-1
3412,8,-6,-14,7,-1,7,5,0
3413,8,-6,-15,8,-1,3,6,0
3414,8,-6,-17,8,-2,-1,6,0
3415,7,-6,-18,8,-3,-3,6,0
3416,7,-6,-18,8,-4,-3,6,-1
3417,6,-6,-18,8,-4,-3,6,-1
3418,6,-6,-18,9,-5,-3,6,0
3419,7,-5,-18,9,-5,-3,7,1
3420,7,-4,-17,10,-4,0,7,2
3421,7,-3,-16,10,-3,2,8,2
3422,7,-2,-15,10,-2,2,7,2
3423,6,0,-14,9,-2,0,7,2
3424,5,1,-13,8,-1,-1,6,2
3425,4,1,-12,7,-1,-2,4,1
3426,3,1,-10,5,-2,-1,3,0
3427,2,0,-8,3,-2,2,1,-1
3428,1,-1,-5,2,-2,7,0,-2
3429,0,-2,-3,1,-2,11,-1,-2
3430,0,-3,-3,0,-3,13,-1,-2
3431,-1,-4,-3,-1,-3,13,-2,-3
3432,-1,-5,-3,-2,-3,13,-2,-4
3433,-2,-5,-4,-4,-3,11,-3,-4
3434,-2,-5,-5,-5,-2,9,-3,-3
3435,-3,-5,-8,-5,-2,6,-4,-2
3436,-3,-4,-10,-6,-3,3,-4,-1
3437,-4,-4,-12,-6,-3,0,-4,-1
3438,-4,-3,-13,-6,-3,-2,-5,0
3439,-4,-3,-14,-5,-4,-2,-5,0
3440,-3,-4,-14,-5,-4,-2,-6,0
3441,-2,-4,-15,-4,-4,-4,-6,0
3442,-2,-4,-16,-3,-4,-8,-6,0
3443,-1,-4,-17,-2,-4,-9,-5,0
3444,0,-5,-17,-1,-3,-11,-4,1
3445,0,-4,-18,1,-2,-13,-3,1
3446,1,-4,-20,2,-1,-15,-2,2
3447,0,-2,-20,3,-1,-15,-1,2
3448,-1,0,-19,3,-1,-9,0,2
3449,-2,2,-16,3,0,0,0,2
3450,-3,4,-11,3,0,10,1,2
3451,-3,6,-8,3,1,17,1,3
3452,-3,7,-6,3,1,20,1,4
3453,-2,8,-5,3,1,18,2,4
3454,-2,8,-5,3,1,15,2,5
3455,-3,9,-5,3,1,13,2,4
3456,-3,8,-4,2,0,14,2,4
3457,-4,7,-3,2,-1,16,2,3
3458,-5,6,-2,2,-2,19,1,2
3459,-5,4,-2,1,-2,19,-1,2
3460,-6,2,-1,1,-2,18,-2,1
3461,-6,0,0,0,-2,17,-2,1
3462,-6,-1,0,-1,-2,14,-2,1
3463,-5,-1,-1,-1,-2,10,-2,1
3464,-5,-2,-2,-1,-2,7,-2,1
3465,-4,-2,-4,-1,-3,5,-1,1
3466,-4,-2,-7,-1,-3,4,0,1
3467,-4,-1,-10,-1,-4,5,1,1
3468,-3,-1,-13,-1,-4,6,2,1
3469,-3,0,-16,0,-5,5,3,1
3470,-2,0,-18,0,-5,2,4,1
3471,-1,0,-19,1,-5,0,4,0
3472,1,-1,-20,1,-5,-3,4,0
3473,1,-1,-20,1,-5,-7,4,-1
3474,1,-2,-21,1,-4,-11,4,-1
3475,0,-2,-20,-1,-4,-13,3,-2
3476,-1,-3,-18,-2,-4,-11,2,-2
3477,-1,-4,-15,-4,-4,-6,1,-3
3478,-2,-5,-13,-5,-5,-2,0,-3
3479,-2,-5,-12,-5,-6,-2,-1,-3
3480,-2,-5,-12,-5,-6,-4,-2,-3
3481,-2,-4,-11,-4,-7,-3,-3,-3
3482,-2,-4,-11,-3,-7,-2,-3,-3
3483,-1,-4,-11,-2,-7,-2,-2,-3
3484,0,-4,-13,-2,-6,-6,-1,-3
3485,1,-3,-16,-1,-5,-11,0,-2
3486,2,-3,-18,-1,-4,-14,1,-2
3487,4,-3,-18,0,-3,-17,1,-1
3488,4,-3,-17,0,-2,-17,1,0
3489,5,-3,-14,1,-3,-12,1,1
3490,5,-3,-11,1,-3,-6,1,1
3491,4,-3,-9,1,-3,-3,1,2
3492,4,-3,-8,2,-2,-2,1,2
3493,5,-2,-8,3,-2,-3,2,3
3494,5,-1,-7,4,-1,-2,2,3
3495,6,0,-6,4,-1,0,2,3
3496,6,0,-5,4,0,2,3,3
3497,6,0,-4,4,0,4,2,4
3498,5,-1,-3,3,0,7,2,4
3499,5,-1,-2,2,0,11,2,3
3500,4,0,-1,2,-1,13,2,3
3501,3,1,-1,1,-1,11,2,4
3502,2,1,-3,1,0,7,3,4
3503,1,2,-5,0,0,3,3,3
3504,1,2,-5,0,0,1,3,3
3505,1,1,-5,1,0,-1,3,3
3506,0,1,-4,1,-1,-1,2,2
3507,0,0,-2,1,-1,0,2,2
3508,0,-1,-1,2,0,-1,2,2
3509,0,-1,-1,2,0,-3,1,2
3510,-1,-1,-2,2,1,-6,1,2
3511,-1,-1,-3,2,0,-7,1,2
3512,-1,0,-4,2,0,-7,2,2
3513,0,0,-5,2,1,-5,2,2
3514,1,0,-5,2,1,0,3,1
3515,2,-1,-4,2,1,5,3,1
3516,2,-1,-3,2,1,7,2,0
3517,2,-2,-3,2,0,7,2,0
3518,2,-2,-4,1,-1,5,1,-1
3519,1,-2,-6,1,-1,2,0,-1
3520,1,-2,-8,1,-1,-2,1,-1
3521,0,-1,-11,2,-1,-4,1,0
3522,0,0,-12,3,1,-4,2,0
3523,0,1,-11,3,1,-2,4,1
3524,-1,1,-9,3,2,0,4,1
3525,-2,1,-7,2,2,2,4,1
3526,-3,2,-4,1,2,3,3,0
3527,-4,2,-2,0,2,3,1,0
3528,-5,3,1,-2,2,3,-1,-1
3529,-7,3,2,-3,2,3,-3,-1
3530,-8,3,2,-3,3,2,-4,-1
3531,-9,3,1,-3,2,2,-4,-1
3532,-9,4,1,-2,2,4,-3,-2
3533,-8,4,1,-2,1,7,-3,-2
3534,-8,4,1,-1,1,9,-2,-2
3535,-7,3,1,-1,0,12,-2,-2
3536,-6,3,2,-1,0,15,-1,-2
3537,-6,2,3,0,-1,17,-1,-2
3538,-5,2,3,0,-1,16,-1,-2
3539,-5,2,2,-1,-1,14,-1,-2
3540,-5,1,2,-1,0,13,-1,-2
3541,-5,0,2,-2,0,13,-2,-2
3542,-5,-1,3,-2,0,16,-3,-2
3543,-4,-1,5,-2,0,19,-3,-2
3544,-4,-1,5,-2,0,21,-3,-2
3545,-3,-1,5,-1,1,23,-2,-1
3546,-1,1,4,0,1,22,-1,0
3547,-1,2,1,1,2,19,-1,1
3548,0,2,-1,1,3,15,0,2
3549,-1,2,-2,0,3,12,1,2
3550,-1,2,-3,0,4,8,1,2
3551,-2,2,-5,0,4,2,0,2
3552,-3,2,-7,0,3,-5,0,2
3553,-3,2,-9,0,3,-11,-1,2
3554,-4,1,-10,0,2,-14,-1,2
3555,-5,1,-9,0,2,-13,-1,2
3556,-5,0,-6,0,2,-7,-2,1
3557,-5,0,-1,1,2,3,-2,2
3558,-5,0,4,2,2,14,-1,2
3559,-4,1,9,3,3,23,-1,2
3560,-3,2,12,4,3,29,1,2
3561,-3,2,12,5,3,29,2,2
3562,-2,2,10,6,3,25,4,2
3563,-1,2,8,6,3,20,5,1
3564,-1,1,6,6,3,15,5,1
3565,-1,1,5,5,2,11,5,1
3566,-1,1,3,5,1,9,4,2
3567,-2,1,2,5,0,8,3,2
3568,-3,1,0,4,-1,9,1,1
3569,-3,1,-1,3,-2,11,0,0
3570,-4,2,-2,2,-3,12,-1,-1
3571,-4,3,-4,2,-4,9,-2,-1
3572,-4,3,-6,1,-4,6,-2,-1
3573,-4,3,-6,1,-4,3,-3,0
3574,-5,3,-6,0,-4,1,-3,0
3575,-6,3,-5,0,-4,1,-3,0
3576,-7,2,-4,-1,-3,3,-3,0
3577,-8,1,-2,-2,-3,6,-3,-1
3578,-9,0,0,-3,-3,9,-4,-2
3579,-10,-1,1,-4,-3,10,-5,-2
3580,-10,-1,3,-4,-4,14,-5,-3
3581,-11,-1,4,-5,-4,18,-5,-4
3582,-11,-1,5,-5,-4,20,-5,-5
3583,-11,0,4,-5,-4,19,-5,-4
3584,-11,0,2,-5,-3,16,-5,-4
3585,-10,0,0,-5,-2,14,-5,-4
3586,-10,0,-1,-4,-2,13,-6,-4
3587,-10,-1,-2,-4,-2,14,-6,-5
3588,-10,-3,-1,-4,-3,16,-6,-6
3589,-9,-3,-1,-4,-3,15,-6,-6
3590,-9,-3,-2,-3,-3,11,-6,-5
3591,-8,-3,-4,-1,-2,6,-6,-4
3592,-7,-2,-4,0,-1,2,-6,-3
3593,-6,-1,-5,1,0,-1,-5,-2
3594,-6,-1,-5,2,0,-1,-5,-2
3595,-5,-1,-5,2,1,-1,-4,-2
3596,-4,-1,-5,2,0,1,-4,-2
3597,-3,-2,-5,2,-1,4,-4,-2
3598,-2,-2,-5,1,-1,8,-3,-1
3599,-1,-3,-4,1,-2,10,-3,-1
3600,0,-3,-4,0,-2,11,-3,0
3601,1,-4,-3,-1,-2,9,-3,0
3602,1,-4,-3,-1,-1,8,-4,1
3603,-1,-3,-3,-2,-1,8,-5,1
3604,-2,-3,-4,-3,-1,8,-7,0
3605,-3,-3,-5,-3,-1,7,-8,-1
3606,-4,-3,-7,-2,-1,5,-9,-1
3607,-5,-3,-7,-2,-2,3,-9,-2
3608,-5,-4,-7,-3,-2,3,-9,-3
3609,-6,-5,-7,-3,-2,5,-9,-4
3610,-6,-5,-6,-3,-2,8,-9,-4
3611,-6,-6,-6,-3,-2,8,-10,-4
3612,-6,-6,-7,-3,-2,6,-10,-4
3613,-6,-6,-8,-3,-2,1,-10,-4
3614,-6,-6,-8,-3,-1,-1,-9,-3
3615,-6,-5,-7,-4,-1,1,-8,-3
3616,-7,-5,-5,-5,-1,6,-8,-3
3617,-6,-5,-2,-5,-1,13,-7,-2
3618,-6,-4,-1,-5,-1,17,-7,-2
3619,-5,-3,-2,-5,-1,17,-6,-1
3620,-5,-1,-3,-4,-1,15,-5,0
3621,-4,-1,-3,-4,0,12,-4,1
3622,-4,0,-4,-5,0,12,-4,1
3623,-4,0,-3,-6,-1,12,-4,0
3624,-4,1,-3,-7,-1,12,-5,-1
3625,-4,1,-4,-7,-2,11,-5,-1
3626,-5,1,-3,-7,-2,11,-4,-2
3627,-5,1,-3,-6,-2,11,-3,-2
3628,-6,1,-3,-5,-1,10,-1,-2
3629,-6,0,-2,-4,-1,8,0,-2
3630,-5,-1,-1,-4,0,8,0,-1
3631,-5,-1,0,-3,0,8,0,-1
3632,-4,-1,0,-3,0,6,0,0
3633,-3,-1,-1,-3,-1,3,0,1
3634,-3,-2,-1,-3,-1,2,-1,1
3635,-4,-3,0,-3,-1,2,-2,1
3636,-4,-4,1,-3,-1,3,-3,1
3637,-5,-5,2,-4,-1,4,-4,0
3638,-5,-5,2,-3,-1,5,-4,0
3639,-5,-5,1,-3,-1,7,-4,-1
3640,-5,-6,1,-3,-1,8,-3,-2
3641,-4,-6,1,-2,-2,8,-3,-2
3642,-2,-6,-1,-1,-3,6,-2,-2
3643,-1,-6,-3,-1,-3,3,-2,-2
3644,0,-6,-5,-2,-3,-3,-2,-1
3645,1,-6,-8,-2,-4,-9,-1,-1
3646,0,-6,-10,-2,-4,-14,-1,-1
3647,0,-5,-11,-2,-5,-16,-1,-1
3648,-1,-4,-10,-3,-5,-14,-1,-1
3649,-1,-3,-9,-3,-5,-10,0,-2
3650,-1,-2,-9,-4,-4,-6,1,-2
3651,-1,-1,-9,-4,-4,-3,1,-2
3652,-1,-1,-8,-4,-4,0,1,-2
3653,-1,-2,-6,-4,-4,3,1,-3
3654,-1,-2,-4,-4,-3,5,1,-3
3655,-2,-2,-3,-4,-2,6,1,-3
3656,-3,-1,-1,-4,-2,7,1,-3
3657,-3,0,-1,-4,-2,7,1,-3
3658,-3,1,0,-4,-2,7,0,-3
3659,-3,2,0,-5,-3,8,0,-3
3660,-4,4,1,-6,-3,9,-1,-3
3661,-4,6,0,-6,-3,10,-2,-1
3662,-5,8,-1,-7,-2,10,-2,0
3663,-6,9,-2,-6,0,9,-1,1
3664,-7,11,-4,-5,1,6,-1,2
3665,-7,11,-7,-4,1,0,0,2
3666,-7,11,-11,-2,0,-6,1,3
3667,-6,11,-14,-1,0,-11,1,3
3668,-6,11,-15,-1,-1,-13,1,3
3669,-5,10,-14,-1,-1,-12,2,2
3670,-6,9,-12,-1,-1,-8,2,1
3671,-6,8,-10,-2,-1,-5,2,0
3672,-6,7,-9,-3,0,-3,3,-1
3673,-6,5,-8,-4,0,-2,3,-1
3674,-5,4,-8,-4,-1,-2,3,0
3675,-5,4,-9,-3,-1,-2,3,0
3676,-4,4,-10,-2,-2,-2,4,1
3677,-4,4,-11,-1,-3,-1,4,1
3678,-4,5,-11,-1,-3,0,3,1
3679,-5,6,-11,-1,-3,0,3,1
3680,-4,7,-10,-1,-3,1,2,0
3681,-4,6,-8,-1,-3,4,2,0
3682,-3,6,-6,0,-3,8,2,-1
3683,-2,5,-5,1,-3,11,3,-1
3684,-1,6,-5,2,-3,12,3,0
3685,0,7,-8,3,-2,8,5,1
3686,1,8,-11,4,-1,4,6,2
3687,1,10,-13,5,1,-1,8,3
3688,1,11,-13,5,2,-3,8,4
3689,1,12,-11,5,3,-4,8,5
3690,1,12,-9,5,3,-4,8,5
3691,1,12,-7,5,4,-5,8,5
3692,1,12,-6,5,5,-8,8,5
3693,1,11,-6,5,5,-12,9,4
3694,1,9,-7,6,5,-15,9,3
3695,1,8,-9,6,4,-16,10,2
3696,1,6,-10,6,2,-16,10,1
3697,1,5,-11,5,0,-15,10,0
3698,0,3,-12,4,-1,-14,9,-1
3699,-1,2,-13,2,-2,-14,8,-2
3700,-2,0,-13,1,-2,-14,7,-3
3701,-2,-1,-13,0,-3,-14,6,-4
3702,-3,-2,-14,-1,-3,-17,5,-5
3703,-3,-2,-16,-1,-2,-21,5,-5
3704,-3,-1,-17,-1,-1,-23,5,-6
3705,-3,0,-17,0,-1,-22,6,-5
3706,-3,2,-16,1,-1,-18,7,-5
3707,-2,3,-14,2,-2,-13,8,-4
3708,-1,5,-13,4,-3,-10,9,-4
3709,0,6,-13,5,-4,-8,9,-3
3710,1,7,-14,5,-5,-8,9,-2
3711,2,8,-15,6,-5,-10,9,-1
3712,2,8,-17,7,-5,-14,9,-1
3713,3,8,-18,8,-4,-18,9,0
3714,3,8,-19,8,-3,-21,9,1
3715,4,9,-19,8,-2,-23,9,1
3716,4,9,-16,8,-1,-22,8,2
3717,3,9,-12,8,0,-18,7,2
3718,2,9,-7,7,0,-14,6,2
3719,1,9,-4,6,1,-12,5,3
3720,0,9,-1,5,1,-11,5,3
3721,-2,9,1,4,1,-12,5,2
3722,-3,9,1,3,2,-11,5,2
3723,-3,9,1,2,1,-10,5,2
3724,-4,9,1,2,1,-9,4,2
3725,-4,9,-1,2,0,-11,4,2
3726,-3,8,-3,2,0,-16,5,2
3727,-3,8,-6,2,0,-21,6,2
3728,-3,8,-11,2,1,-27,7,1
3729,-3,7,-15,2,1,-34,7,0
3730,-3,7,-19,2,1,-41,7,-1
3731,-3,6,-22,2,0,-48,6,-1
3732,-3,5,-23,1,-1,-51,4,-1
3733,-3,4,-23,1,-2,-51,2,-1
3734,-3,4,-21,0,-3,-48,1,0
3735,-3,3,-17,-1,-3,-40,0,0
3736,-3,3,-13,-1,-3,-30,-1,0
3737,-2,3,-8,-1,-2,-19,-1,0
3738,-2,3,-4,-1,-2,-12,-1,0
3739,-2,3,-2,-1,-3,-11,-1,0
3740,-3,4,-1,0,-3,-12,-2,0
3741,-4,4,-1,0,-3,-14,-2,0
3742,-4,4,0,0,-3,-14,-2,0
3743,-3,3,2,0,-3,-13,-1,-1
3744,-2,3,3,0,-2,-13,-1,-2
3745,-2,4,4,0,-2,-14,1,-2
3746,-2,5,3,0,0,-17,2,-1
3747,-2,6,2,1,1,-21,2,-1
3748,-2,6,-1,2,2,-27,3,0
3749,-2,4,-4,3,2,-33,3,0
3750,-1,3,-6,3,2,-36,3,0
3751,-1,1,-6,4,2,-38,3,-1
3752,-1,1,-6,4,2,-37,3,-1
3753,-1,0,-5,4,1,-34,3,-1
3754,0,0,-4,3,0,-28,3,-1
3755,0,-1,-2,2,0,-23,2,-2
3756,1,-1,-1,1,-1,-21,1,-2
3757,0,-2,-1,0,0,-22,1,-3
3758,-1,-2,-3,-1,0,-25,0,-3
3759,-2,-2,-4,-2,0,-27,-1,-3
3760,-3,-2,-5,-3,0,-28,-2,-4
3761,-4,-2,-6,-4,-1,-28,-2,-4
3762,-4,-2,-8,-4,-1,-28,-3,-4
3763,-4,-2,-10,-5,-2,-29,-3,-5
3764,-3,-2,-11,-5,-2,-28,-4,-5
3765,-3,-1,-12,-6,-2,-26,-4,-4
3766,-3,0,-14,-6,-3,-26,-5,-4
3767,-4,1,-17,-5,-3,-31,-6,-4
3768,-4,2,-20,-4,-3,-37,-6,-3
3769,-4,3,-22,-3,-2,-43,-6,-3
3770,-3,3,-23,-3,-1,-47,-6,-2
3771,-3,3,-22,-2,-1,-49,-5,-1
3772,-3,2,-20,-2,0,-47,-6,-1
3773,-4,1,-17,-2,-1,-40,-7,0
3774,-6,1,-13,-2,-1,-33,-8,0
3775,-7,1,-10,-3,-1,-28,-9,0
3776,-7,1,-9,-3,0,-29,-10,1
3777,-7,0,-7,-3,1,-33,-10,0
3778,-7,0,-7,-4,2,-36,-10,0
3779,-7,-1,-6,-4,2,-39,-10,-1
3780,-7,-2,-7,-4,2,-42,-10,-2
3781,-6,-3,-8,-5,2,-43,-9,-2
3782,-6,-5,-8,-5,1,-42,-9,-3
3783,-6,-6,-7,-6,0,-37,-9,-4
3784,-4,-8,-5,-7,-2,-33,-9,-4
3785,-2,-9,-5,-7,-3,-32,-9,-5
3786,0,-10,-4,-7,-3,-32,-8,-5
3787,3,-10,-5,-7,-3,-32,-7,-4
3788,5,-10,-5,-6,-3,-32,-6,-4
3789,7,-9,-6,-5,-2,-32,-5,-3
3790,8,-9,-7,-5,-1,-32,-5,-2
3791,10,-8,-8,-5,-1,-32,-4,-1
3792,11,-8,-8,-4,-1,-29,-3,0
3793,12,-8,-8,-3,-1,-27,-2,0
3794,13,-8,-7,-2,0,-25,0,1
3795,13,-8,-6,-1,0,-21,1,1
3796,13,-7,-3,-1,1,-15,2,1
3797,12,-5,0,0,1,-11,3,2
3798,12,-4,1,1,1,-11,4,3
3799,12,-2,-1,2,1,-16,4,4
3800,12,0,-2,2,1,-22,5,4
3801,11,1,-2,2,2,-28,5,4
3802,9,2,-1,2,2,-32,4,3
3803,7,3,1,1,2,-35,3,3
3804,5,3,2,0,3,-38,1,2
3805,3,3,2,-1,3,-39,0,1
3806,2,3,2,-2,2,-41,-1,0
3807,1,3,1,-3,2,-43,-2,-1
3808,0,4,0,-3,2,-45,-2,-1
3809,-1,3,0,-2,2,-45,-2,-1
3810,-1,3,2,-1,2,-44,-1,-1
3811,-1,3,2,1,1,-44,0,-1
3812,-1,3,1,2,1,-45,2,-1
3813,-1,2,0,4,-1,-46,3,-1
3814,-1,2,-1,4,-2,-44,3,-1
3815,0,2,-1,3,-2,-42,3,-1
3816,1,2,-1,2,-3,-40,2,-1
3817,1,2,-2,1,-2,-41,2,0
3818,1,3,-4,0,-1,-45,1,0
3819,2,4,-5,0,0,-48,2,1
3820,3,4,-7,0,1,-51,2,1
3821,4,5,-7,1,1,-50,2,1
3822,4,5,-6,1,1,-44,2,1
3823,4,6,-4,1,1,-34,2,1
3824,4,6,-1,0,1,-26,2,1
3825,4,7,0,-1,1,-23,2,1
3826,3,7,1,0,1,-23,2,2
3827,4,7,1,0,2,-25,2,3
3828,4,6,1,1,3,-26,3,4
3829,5,5,1,2,3,-27,3,5
3830,6,4,2,3,3,-26,4,4
3831,7,3,2,3,3,-25,4,4
3832,7,2,2,4,1,-23,4,2
3833,6,2,3,4,-1,-21,4,1
3834,5,2,4,4,-2,-18,3,1
3835,4,2,5,3,-3,-15,3,0
3836,3,2,5,2,-3,-12,2,0
3837,3,2,6,1,-2,-9,1,0
3838,2,2,5,1,-2,-9,0,1
3839,1,2,3,-1,-1,-12,0,1
3840,0,3,1,-2,-1,-17,0,1
3841,-1,3,-2,-2,0,-22,0,2
3842,-1,4,-5,-3,0,-25,0,2
3843,-1,4,-6,-3,0,-27,1,2
3844,-1,5,-7,-4,0,-26,0,3
3845,-2,5,-6,-4,-1,-22,0,3
3846,-3,5,-4,-4,-1,-19,0,2
3847,-4,4,-2,-4,-2,-16,-1,1
3848,-5,4,-1,-4,-2,-16,-1,-1
3849,-6,3,0,-3,-2,-17,-2,-2
3850,-6,3,0,-3,-2,-19,-3,-3
3851,-6,3,0,-3,-2,-20,-4,-3
3852,-6,2,0,-3,-1,-20,-5,-3
3853,-5,2,0,-4,-1,-20,-6,-2
3854,-4,2,-1,-4,0,-19,-5,-2
3855,-4,3,-2,-4,0,-17,-5,-1
3856,-4,4,-2,-3,1,-14,-4,0
3857,-3,5,-1,-2,1,-12,-2,1
3858,-3,6,0,-1,0,-11,-1,2
3859,-2,6,2,0,0,-10,0,2
3860,-1,6,5,1,-1,-6,1,3
3861,0,5,9,0,-1,1,1,3
3862,0,5,12,-1,-1,6,1,4
3863,-1,6,13,-2,-1,7,1,4
3864,-1,6,12,-2,-1,6,1,4
3865,-2,7,10,-2,-1,3,2,4
3866,-2,6,6,-2,-1,-2,3,3
3867,-2,5,3,-2,-1,-6,3,2
3868,-2,4,0,-2,-2,-9,3,1
3869,-1,1,-1,-2,-2,-11,3,0
3870,-1,-2,-2,-2,-2,-13,3,-2
3871,0,-4,-4,-2,-2,-17,2,-2
3872,0,-6,-4,-2,-2,-19,2,-3
3873,1,-7,-4,-1,-2,-17,3,-3
3874,1,-7,-4,-1,-3,-14,4,-4
3875,1,-7,-5,0,-3,-14,4,-4
3876,2,-6,-7,0,-2,-21,5,-4
3877,3,-6,-10,1,-1,-30,5,-3
3878,4,-6,-12,1,0,-33,5,-2
3879,4,-5,-12,1,1,-32,5,-1
3880,4,-4,-11,2,0,-28,5,-1
3881,4,-3,-10,4,-1,-22,4,0
3882,4,-1,-9,5,-2,-18,4,0
3883,4,-1,-7,5,-2,-16,4,0
3884,4,0,-7,6,-2,-16,3,0
3885,3,0,-6,6,-1,-17,3,1
3886,2,-1,-5,6,-1,-18,2,1
3887,1,0,-5,6,-1,-18,1,1
3888,-1,0,-4,5,-1,-18,-1,1
3889,-3,1,-4,4,-1,-18,-2,2
3890,-4,2,-3,4,0,-15,-2,2
3891,-5,2,-1,3,0,-11,-2,2
3892,-5,2,2,2,0,-7,-2,1
3893,-5,0,4,1,0,-3,-2,0
3894,-5,-2,5,1,0,0,-2,-1
3895,-4,-4,4,0,0,3,-1,-1
3896,-2,-6,3,-1,0,5,-1,-1
3897,-1,-8,2,-1,0,6,0,0
3898,0,-9,-1,0,1,3,1,0
3899,1,-9,-4,2,1,-2,2,1
3900,2,-8,-8,4,1,-7,3,1
3901,3,-7,-10,5,0,-10,3,2
3902,4,-5,-12,6,0,-9,4,2
3903,5,-4,-14,6,1,-6,4,2
3904,6,-3,-15,6,1,-4,4,2
3905,6,-1,-16,5,2,-3,4,2
3906,6,0,-16,5,3,-3,4,2
3907,7,2,-14,5,3,-1,4,2
3908,7,2,-11,5,2,3,4,2
3909,6,3,-8,4,2,7,4,2
3910,5,4,-6,4,1,7,4,2
3911,4,4,-3,5,2,7,4,3
3912,3,5,0,5,2,6,4,4
3913,1,4,2,6,2,5,3,4
3914,-1,3,3,6,3,0,1,5
3915,-2,2,2,5,3,-6,-1,5
3916,-3,0,1,4,3,-11,-4,6
3917,-4,-1,0,2,3,-14,-5,6
3918,-5,-2,1,2,3,-13,-5,6
3919,-5,-2,4,2,3,-7,-4,6
3920,-4,-2,8,2,3,4,-3,7
3921,-3,-2,11,2,3,13,-3,7
3922,-3,-2,11,3,3,19,-3,6
3923,-3,-2,8,3,3,21,-3,6
3924,-2,-3,4,2,3,21,-3,5
3925,-2,-3,1,2,2,20,-2,4
3926,-1,-3,-3,2,2,18,-2,4
3927,-2,-2,-5,2,1,16,-2,3
3928,-2,-1,-5,2,1,18,-3,2
3929,-3,-1,-3,3,1,21,-4,2
3930,-3,-1,-1,4,1,25,-4,2
3931,-3,-1,1,4,1,29,-5,2
3932,-3,-2,3,5,1,34,-5,1
3933,-3,-3,6,5,0,41,-6,0
3934,-4,-3,9,4,-1,50,-7,-1
3935,-5,-4,13,4,-1,56,-7,-3
3936,-6,-4,15,3,-1,56,-7,-4
3937,-6,-3,16,3,0,54,-6,-4
3938,-6,-3,16,2,1,51,-6,-4
3939,-5,-2,17,2,1,49,-5,-3
3940,-5,-2,18,2,1,51,-5,-3
3941,-5,-1,22,2,1,56,-5,-2
3942,-5,-1,25,2,1,60,-6,-2
3943,-5,-1,26,1,1,59,-6,-2
3944,-4,-2,27,1,1,57,-7,-1
3945,-4,-3,27,0,0,58,-7,-2
3946,-3,-4,26,-1,0,61,-7,-2
3947,-2,-5,23,-1,-1,61,-6,-2
3948,-1,-6,20,1,-1,57,-5,-1
3949,1,-6,15,2,0,50,-4,-1
3950,2,-6,10,3,0,41,-3,1
3951,3,-5,6,4,1,32,-1,2
3952,4,-4,2,5,1,25,0,3
3953,5,-2,-1,6,2,19,1,4
3954,4,0,-3,7,3,15,1,4
3955,4,2,-3,7,4,14,1,4
3956,3,3,-2,8,4,13,1,4
3957,3,3,-1,8,4,10,1,4
3958,4,3,0,9,3,7,1,4
3959,5,3,0,10,3,2,1,4
3960,6,2,-1,11,3,-3,1,4
3961,6,1,-2,10,3,-8,0,3
3962,5,0,-3,9,2,-10,-1,2
3963,4,-1,-2,8,2,-9,-1,1
3964,4,-2,0,6,1,-5,-2,0
3965,4,-3,3,4,1,0,-2,-1
3966,3,-3,5,3,1,3,-2,-2
3967,3,-4,7,1,2,5,-2,-2
3968,3,-4,7,0,2,5,-1,-3
3969,3,-5,7,-1,2,5,-1,-3
3970,3,-6,8,-1,1,7,-1,-3
3971,3,-6,8,-2,0,11,-1,-3
3972,3,-6,7,-2,0,14,-1,-3
3973,3,-5,6,-2,0,14,-2,-2
3974,2,-5,3,-3,-1,13,-2,-2
3975,2,-4,1,-3,-1,12,-3,-2
3976,2,-4,-1,-2,-1,10,-3,-2
3977,3,-4,-2,-1,-1,9,-3,-1
3978,4,-4,-2,0,-1,7,-3,-1
3979,4,-4,-3,2,0,4,-2,0
3980,5,-4,-4,2,1,3,-2,1
3981,5,-4,-5,3,1,4,-1,1
3982,5,-4,-5,3,2,7,-1,1
3983,6,-4,-4,2,2,9,-1,2
3984,7,-5,-4,2,2,8,0,2
3985,7,-5,-3,3,3,5,0,3
3986,7,-5,-2,3,3,5,0,3
3987,6,-6,1,3,3,7,0,2
3988,5,-6,4,3,3,12,-1,1
3989,3,-6,7,3,2,16,-2,0
3990,2,-7,9,3,2,18,-3,-1
3991,2,-7,11,3,2,19,-3,-2
3992,1,-7,13,2,2,21,-3,-2
3993,2,-8,16,1,2,25,-3,-3
3994,2,-9,18,-1,2,30,-3,-3
3995,2,-9,21,-2,3,33,-3,-3
3996,1,-9,22,-4,3,33,-3,-3
3997,1,-8,23,-5,3,33,-3,-3
3998,1,-7,22,-6,3,32,-3,-2
3999,1,-7,19,-7,3,29,-3,-2
4000,1,-7,15,-7,3,26,-3,-1
4001,2,-7,10,-8,4,22,-3,-1
4002,3,-7,6,-7,4,19,-3,0
4003,5,-7,3,-6,4,17,-3,1
4004,6,-6,1,-5,3,16,-2,2
4005,7,-6,1,-3,2,17,-1,2
4006,8,-4,0,-1,1,18,0,3
4007,8,-3,0,0,1,18,0,3
4008,7,-2,-1,1,0,16,0,4
4009,7,-2,-2,2,0,11,0,4
4010,6,-2,-3,2,-1,7,0,4
4011,5,-3,-2,1,-2,4,-1,3
4012,4,-5,0,0,-2,4,-2,2
4013,2,-5,2,-2,-2,7,-4,1
4014,1,-6,4,-3,-2,11,-6,0
4015,0,-6,5,-5,-2,15,-7,-1
4016,0,-6,6,-5,-1,18,-8,-2
4017,0,-5,7,-6,-1,17,-8,-2
4018,1,-5,7,-5,0,15,-7,-2
4019,1,-4,8,-5,1,16,-6,-1
4020,1,-3,12,-5,2,21,-6,0
4021,1,-3,15,-6,2,27,-6,1
4022,2,-4,17,-6,2,31,-5,1
4023,2,-4,17,-7,2,31,-4,1
4024,3,-4,16,-6,1,28,-3,0
4025,4,-3,12,-6,2,21,-1,0
4026,5,-3,8,-5,2,14,1,0
4027,6,-2,4,-4,1,10,1,1
4028,6,-2,2,-3,1,8,2,0
4029,5,-2,0,-3,0,7,2,0
4030,5,-2,-1,-2,0,8,2,-1
4031,4,-3,0,-1,0,9,3,-1
4032,5,-4,1,0,-1,11,3,-2
4033,5,-5,1,1,-1,11,4,-2
4034,6,-6,1,2,-1,10,4,-3
4035,6,-6,0,3,-2,8,4,-2
4036,7,-6,-1,3,-2,4,3,-2
4037,7,-5,-3,4,-1,0,3,-2
4038,7,-5,-4,3,-1,-2,2,-1
4039,6,-4,-6,2,-2,1,2,-1
4040,6,-4,-6,1,-2,9,1,-2
4041,4,-4,-6,0,-2,25,0,-2
4042,3,-4,-3,-1,-3,46,-1,-3
4043,1,-5,1,-2,-3,67,-1,-4
4044,1,-6,5,-3,-3,84,-1,-4
4045,1,-6,7,-4,-4,94,0,-5
4046,1,-6,8,-4,-4,97,1,-5
4047,1,-6,8,-5,-4,96,2,-5
4048,1,-6,8,-5,-4,96,3,-5
4049,1,-5,9,-5,-5,97,3,-5
4050,1,-4,10,-4,-5,99,2,-5
4051,1,-3,10,-3,-6,100,2,-4
4052,0,-2,11,-2,-6,101,1,-4
4053,1,-1,11,0,-7,101,2,-3
4054,1,0,11,2,-8,99,3,-2
4055,2,1,10,3,-8,94,4,-2
4056,3,1,8,4,-7,85,6,-2
4057,4,-1,6,5,-6,75,7,-2
4058,6,-2,3,5,-4,66,7,-1
4059,7,-3,2,5,-2,61,7,-1
4060,7,-4,1,5,0,58,7,-1
4061,7,-4,2,6,2,60,7,0
4062,6,-4,3,6,3,63,7,1
4063,6,-3,3,6,3,64,7,2
4064,5,-2,2,6,4,63,6,2
4065,4,0,-1,5,3,61,6,2
4066,3,1,-3,4,2,57,7,2
4067,3,2,-4,4,2,55,7,1
4068,3,3,-5,3,1,53,8,0
4069,4,2,-6,3,0,49,8,-1
4070,4,1,-6,2,0,46,8,-1
4071,5,-1,-6,2,-1,44,8,-1
4072,4,-2,-4,2,-1,45,7,-2
4073,3,-3,-1,1,-2,47,6,-2
4074,2,-3,3,1,-2,52,5,-3
4075,1,-3,6,0,-1,57,4,-3
4076,1,-2,7,-1,-1,58,3,-4
4077,1,-2,7,-1,0,56,3,-4
4078,1,-1,6,-1,1,52,3,-4
4079,2,-1,5,-1,1,49,2,-4
4080,2,-2,6,-1,1,49,2,-4
4081,3,-2,8,-1,1,49,1,-4
4082,3,-2,9,-1,1,48,0,-3
4083,3,-2,10,-1,1,45,0,-3
4084,3,-1,10,0,1,43,1,-2
4085,3,-1,10,1,0,43,2,-2
4086,5,-1,10,2,0,44,3,-2
4087,6,-2,8,3,0,42,3,-3
4088,7,-1,4,4,0,35,4,-3
4089,7,-1,0,6,1,28,6,-2
4090,7,0,-3,7,1,22,7,-2
4091,7,1,-4,9,1,20,7,-1
4092,7,2,-4,9,1,21,8,-1
4093,7,3,-4,9,0,24,7,0
4094,7,4,-2,9,0,28,7,0
4095,7,4,-2,9,1,29,6,1
4096,7,5,-3,8,1,27,6,1
4097,7,5,-6,9,1,23,5,2
4098,7,5,-8,9,1,19,5,2
4099,7,4,-10,9,1,16,5,2
4100,6,4,-11,9,1,16,5,1
4101,5,3,-10,7,1,17,4,1
4102,4,3,-6,6,0,22,4,0
4103,3,3,1,5,0,30,4,-1
4104,2,3,8,5,-1,40,4,-2
4105,1,4,15,4,-1,49,4,-2
4106,1,5,19,4,0,54,3,-2
4107,0,5,20,5,0,54,3,-2
4108,-1,6,19,5,1,51,2,-2
4109,-1,6,17,5,1,47,1,-1
4110,0,6,14,5,1,40,0,0
4111,1,6,12,5,2,34,0,1
4112,2,5,11,5,3,28,1,1
4113,3,5,10,6,4,24,1,1
4114,4,4,9,6,5,21,2,1
4115,3,4,8,6,6,21,2,2
4116,3,3,8,7,6,23,2,2
4117,1,4,8,7,6,26,2,2
4118,0,4,8,7,6,27,3,2
4119,-2,4,7,7,5,25,3,2
4120,-2,4,6,7,5,24,3,2
4121,-2,4,5,7,5,24,3,2
4122,-2,3,5,7,5,25,2,2
4123,0,3,5,7,5,26,2,3
4124,1,2,4,7,5,28,2,3
4125,2,2,4,7,5,30,2,2
4126,2,2,4,8,4,32,2,2
4127,2,2,3,8,3,31,2,2
4128,1,3,2,8,3,28,2,2
4129,1,3,2,7,3,29,3,2
4130,1,2,4,6,3,33,2,2
4131,0,2,6,5,2,42,2,1
4132,0,2,10,4,1,54,1,1
4133,-1,2,14,3,-1,66,0,0
4134,-1,2,18,2,-1,78,0,0
4135,-1,1,21,2,-1,88,-1,0
4136,-1,1,24,2,-1,98,-1,0
4137,-2,0,26,3,-1,107,-2,0
4138,-2,-1,30,3,-2,117,-2,0
4139,-3,-2,32,3,-2,124,-3,-2
4140,-4,-3,33,3,-2,123,-4,-2
4141,-4,-3,32,3,-2,116,-4,-2
4142,-4,-3,28,4,-1,106,-3,-2
4143,-4,-2,24,4,0,94,-2,-1
4144,-3,-1,20,5,1,82,-2,0
4145,-3,-1,17,6,2,72,0,0
4146,-2,0,13,6,3,65,2,1
4147,-1,0,10,6,4,57,3,1
4148,0,1,6,6,5,50,5,2
4149,1,1,2,5,6,43,6,2
4150,1,1,-1,5,6,36,6,2
4151,1,0,-3,4,6,32,6,2
4152,1,0,-4,3,6,29,6,1
4153,1,1,-5,2,5,28,5,1
4154,2,1,-5,2,4,26,5,2
4155,2,2,-6,3,3,22,5,2
4156,2,3,-8,3,2,16,5,3
4157,3,4,-8,4,3,11,5,4
4158,4,4,-9,4,4,6,6,4
4159,5,5,-10,5,5,-1,8,5
4160,6,5,-11,6,7,-7,8,5
4161,8,5,-11,7,8,-13,9,4
4162,9,6,-11,8,8,-16,10,4
4163,9,6,-9,9,8,-17,10,3
4164,8,5,-8,9,7,-17,9,2
4165,8,5,-9,10,5,-19,8,2
4166,7,4,-11,9,4,-22,7,1
4167,7,2,-12,9,3,-23,6,0
4168,6,1,-12,8,2,-20,5,0
4169,5,1,-11,8,1,-16,5,0
4170,4,1,-10,7,0,-12,5,0
4171,4,1,-10,7,-1,-10,6,0
4172,3,1,-11,6,-2,-10,7,0
4173,3,-1,-13,6,-2,-12,7,-1
4174,5,-3,-16,5,-2,-16,8,-1
4175,6,-4,-18,5,-2,-20,8,-2
4176,8,-5,-20,5,-2,-23,8,-1
4177,8,-5,-21,6,-1,-28,8,-1
4178,8,-4,-23,6,-1,-36,8,0
4179,6,-2,-24,6,0,-42,7,1
4180,5,0,-23,6,1,-41,7,2
4181,4,1,-21,5,1,-34,6,2
4182,4,1,-19,4,0,-27,5,3
4183,4,0,-19,3,0,-24,4,3
4184,4,-1,-19,2,0,-23,2,4
4185,4,-2,-18,1,0,-22,2,4
4186,4,-3,-17,1,1,-20,1,4
4187,3,-3,-14,1,1,-19,1,3
4188,3,-3,-13,1,2,-18,1,3
4189,2,-2,-12,0,3,-17,1,3
4190,1,-1,-11,0,3,-17,1,3
4191,0,-1,-11,-1,4,-16,0,3
4192,-1,0,-10,-2,4,-14,0,3
4193,-2,1,-10,-2,4,-12,-1,3
4194,-3,1,-12,-3,4,-13,-1,2
4195,-3,1,-14,-3,4,-17,-1,2
4196,-3,1,-16,-3,4,-24,0,1
4197,-3,0,-18,-3,3,-29,0,-1
4198,-3,-2,-17,-4,2,-28,0,-2
4199,-3,-3,-15,-4,1,-23,0,-4
4200,-3,-4,-13,-4,0,-20,0,-5
4201,-4,-5,-12,-5,-1,-19,-1,-5
4202,-4,-4,-11,-5,-1,-18,-1,-4
4203,-4,-3,-9,-4,0,-18,-2,-3
4204,-4,-1,-7,-4,1,-17,-2,-2
4205,-5,1,-6,-3,1,-13,-3,-1
4206,-5,2,-4,-3,1,-10,-3,-1
4207,-6,3,-5,-2,2,-10,-4,0
4208,-6,5,-6,-1,2,-15,-3,1
4209,-5,6,-7,0,2,-18,-3,3
4210,-4,6,-6,0,3,-18,-2,4
4211,-3,6,-4,-1,3,-14,-2,4
4212,-2,5,-1,-3,4,-8,-2,3
4213,-2,3,2,-4,4,-2,-1,3
4214,-2,2,4,-5,4,3,-1,2
4215,-2,1,5,-5,3,6,0,2
4216,-1,-1,6,-5,3,6,1,1
4217,1,-2,5,-5,2,3,1,1
4218,1,-3,6,-4,2,-1,1,1
4219,1,-5,8,-3,1,-1,1,0
4220,1,-6,10,-3,1,-1,0,-1
4221,0,-7,11,-3,0,0,0,-2
4222,-1,-7,11,-4,0,2,-1,-3
4223,-1,-8,11,-5,-1,6,-2,-4
4224,-3,-9,11,-6,-2,9,-2,-5
4225,-3,-9,10,-7,-3,8,-3,-6
4226,-4,-9,10,-7,-3,5,-3,-6
4227,-4,-8,8,-7,-3,0,-3,-6
4228,-4,-7,7,-6,-2,-4,-2,-5
4229,-5,-7,6,-5,-1,-6,-1,-5
4230,-6,-6,5,-3,1,-6,0,-4
4231,-7,-6,5,-2,1,-5,1,-3
4232,-8,-5,5,-1,1,-3,1,-3
4233,-8,-4,6,1,1,-2,1,-2
4234,-8,-2,6,1,2,-1,1,-1
4235,-8,-1,8,2,2,0,0,0
4236,-9,1,9,2,3,1,-1,1
4237,-10,2,10,3,3,1,-2,2
4238,-10,2,11,2,4,1,-3,3
4239,-11,2,12,2,4,0,-3,3
4240,-11,2,11,1,4,-1,-4,3
4241,-11,2,10,1,4,-1,-4,3
4242,-11,1,10,-1,4,1,-4,2
4243,-11,-1,9,-3,3,3,-5,1
4244,-10,-2,8,-4,1,5,-6,0
4245,-9,-4,7,-5,0,5,-7,-1
4246,-9,-5,5,-6,-1,4,-9,-2
4247,-8,-5,4,-5,-2,2,-9,-2
4248,-8,-5,2,-5,-3,2,-10,-2
4249,-8,-5,2,-4,-3,1,-10,-2
4250,-9,-4,1,-4,-3,1,-9,-2
4251,-10,-3,1,-4,-3,0,-8,-3
4252,-10,-3,1,-4,-3,-1,-8,-4
4253,-11,-3,1,-4,-3,-2,-7,-4
4254,-11,-3,0,-4,-3,-4,-6,-5
4255,-10,-4,-1,-4,-3,-5,-6,-6
4256,-9,-4,-1,-3,-3,-3,-5,-6
4257,-8,-5,0,-3,-4,2,-4,-7
4258,-7,-5,1,-3,-4,4,-4,-7
4259,-6,-6,2,-2,-5,4,-3,-6
4260,-6,-6,3,-2,-5,3,-3,-5
4261,-5,-6,3,-2,-5,1,-2,-4
4262,-4,-6,5,-2,-4,-1,-2,-3
4263,-4,-5,7,-2,-2,-1,-3,-2
4264,-4,-4,10,-1,-1,1,-4,-1
4265,-4,-3,12,-1,1,2,-4,0
4266,-4,-4,13,-1,2,4,-5,1
4267,-3,-5,13,-2,1,6,-6,1
4268,-3,-6,13,-2,1,6,-7,0
4269,-2,-6,11,-2,1,3,-7,0
4270,-2,-5,9,-3,1,-2,-7,1
4271,-3,-4,8,-3,1,-5,-7,1
4272,-3,-4,8,-2,1,-4,-6,1
4273,-3,-3,9,-2,1,-1,-6,1
4274,-3,-4,10,-1,1,3,-5,1
4275,-3,-4,11,0,1,5,-5,0
4276,-3,-3,10,1,1,3,-5,0
4277,-2,-2,8,2,2,0,-4,1
4278,-1,-1,6,2,1,-2,-3,1
4279,0,-1,5,2,1,-1,-2,1
4280,1,-1,5,2,0,1,-2,1
4281,1,-2,4,2,-1,1,-1,0
4282,0,-3,2,1,-1,-4,-2,0
4283,-1,-3,-4,1,-1,-13,-2,0
4284,-2,-3,-11,1,0,-26,-2,0
4285,-3,-2,-16,1,0,-33,-3,1
4286,-5,-1,-17,1,-1,-32,-3,1
4287,-6,0,-14,1,-1,-24,-3,1
4288,-7,1,-9,1,-2,-14,-3,1
4289,-7,1,-3,1,-2,-4,-2,1
4290,-5,2,1,2,-2,5,-1,2
4291,-4,2,2,2,-1,7,0,2
4292,-2,3,1,3,0,5,1,3
4293,-1,4,-1,3,1,4,1,2
4294,-1,5,-3,2,2,4,2,2
4295,-1,6,-4,1,2,3,2,2
4296,-1,6,-5,1,2,2,2,1
4297,-2,6,-6,1,2,0,2,1
4298,-2,6,-5,1,1,1,1,0
4299,-2,6,-4,1,1,5,1,0
4300,-1,6,-2,2,1,11,1,0
4301,-1,6,0,3,2,15,2,0
4302,0,7,0,3,2,14,3,0
4303,0,8,-2,4,3,9,3,1
4304,0,8,-4,5,3,3,3,2
4305,-1,8,-5,5,3,-1,2,2
4306,-1,8,-6,5,3,-3,0,2
4307,-2,7,-6,5,2,-5,-2,2
4308,-2,5,-4,4,1,-5,-2,2
4309,-2,4,-2,4,0,-5,-3,2
4310,-3,2,0,4,0,-8,-2,1
4311,-2,1,0,5,-1,-13,-1,0
4312,-2,0,0,6,-1,-16,1,-1
4313,-2,0,1,7,-1,-17,2,-1
4314,-2,-1,2,7,-2,-21,2,-2
4315,-2,-1,3,7,-2,-30,2,-2
4316,-2,-1,4,7,-3,-39,2,-2
4317,-3,-2,5,6,-3,-49,1,-3
4318,-3,-3,5,5,-3,-58,0,-3
4319,-4,-3,4,4,-3,-65,-1,-3
4320,-4,-2,3,2,-2,-69,-1,-3
4321,-5,-1,2,1,-1,-71,-2,-2
4322,-7,1,1,-1,1,-72,-3,-2
4323,-7,2,1,-1,1,-75,-5,-1
4324,-8,3,0,-2,2,-77,-6,-1
4325,-8,3,-1,-2,1,-78,-6,-2
4326,-8,3,-1,-2,0,-76,-6,-3
4327,-7,2,-1,-1,-1,-73,-5,-4
4328,-6,2,-2,-1,-1,-72,-4,-5
4329,-4,2,-4,0,-2,-76,-2,-5
4330,-2,2,-6,2,-2,-81,-1,-5
4331,-1,2,-9,3,-2,-86,-1,-3
4332,1,3,-10,3,-1,-90,-1,-2
4333,2,3,-12,4,-1,-92,-1,0
4334,2,3,-12,4,0,-90,-2,1
4335,2,3,-11,3,0,-85,-2,1
4336,1,3,-10,3,0,-81,-3,2
4337,0,2,-9,2,1,-80,-4,2
4338,0,2,-8,2,1,-80,-4,2
4339,0,1,-8,2,1,-81,-4,2
4340,0,0,-8,2,1,-80,-4,2
4341,0,-1,-9,2,2,-77,-3,1
4342,0,-1,-10,1,2,-75,-3,1
4343,0,-1,-11,0,2,-71,-3,1
4344,0,0,-13,-1,2,-69,-3,1
4345,0,0,-14,-3,2,-67,-4,2
4346,0,0,-15,-3,2,-66,-4,2
4347,1,0,-15,-3,1,-62,-4,1
4348,0,1,-15,-3,0,-58,-4,1
4349,0,1,-14,-3,-1,-55,-4,0
4350,-1,2,-14,-4,-2,-54,-4,0
4351,-1,3,-13,-4,-2,-52,-4,0
4352,-1,3,-11,-4,-2,-49,-4,-1
4353,-1,4,-10,-4,-2,-46,-3,-1
4354,0,5,-9,-3,-2,-44,-2,-1
4355,1,6,-9,-2,-1,-44,-1,-1
4356,2,6,-7,-1,-1,-43,-1,0
4357,3,6,-5,0,-1,-41,-2,1
4358,4,5,-3,1,-2,-40,-2,2
4359,4,5,-2,1,-3,-41,-2,3
4360,3,6,-2,2,-3,-43,-1,3
4361,2,7,-4,3,-3,-48,-1,4
4362,1,9,-6,4,-2,-54,0,5
4363,1,10,-7,4,-2,-58,1,5
4364,0,9,-6,4,-1,-56,1,5
4365,1,8,-4,4,-2,-51,1,5
4366,1,6,-3,5,-2,-49,1,4
4367,2,5,-5,5,-2,-50,0,4
4368,4,3,-6,6,-1,-51,0,4
4369,5,2,-8,7,-1,-51,1,4
4370,6,1,-10,8,0,-53,2,4
4371,8,1,-11,8,0,-55,2,4
4372,8,0,-13,8,0,-55,3,3
4373,8,1,-14,7,0,-54,3,3
4374,9,1,-15,6,0,-52,2,2
4375,9,1,-17,5,0,-51,2,2
4376,9,1,-17,4,0,-48,2,1
4377,9,1,-15,4,0,-42,2,1
4378,9,1,-12,4,0,-36,2,0
4379,9,1,-10,4,1,-31,2,0
4380,9,1,-8,4,1,-25,3,1
4381,9,2,-6,4,1,-19,2,1
4382,8,3,-4,3,0,-14,2,2
4383,8,4,-2,3,-1,-12,2,2
4384,8,5,0,2,-1,-9,1,2
4385,7,6,3,2,-1,-6,1,2
4386,6,7,6,1,-1,-2,0,2
4387,5,7,7,0,-1,2,-1,1
4388,5,6,7,-1,-2,5,-1,1
4389,5,5,6,-2,-2,6,-2,2
4390,5,4,4,-1,-2,4,-2,2
4391,5,4,3,-1,-2,0,-2,3
4392,5,3,1,1,-2,-5,-1,3
4393,5,3,-2,2,-2,-9,-1,4
4394,5,2,-4,2,-2,-12,0,4
4395,5,1,-5,2,-2,-12,0,3
4396,6,0,-6,2,-2,-12,1,3
4397,6,-1,-6,2,-2,-12,2,2
4398,6,-1,-7,1,-1,-10,2,2
4399,5,-1,-7,1,-1,-3,2,1
4400,4,0,-7,0,-1,11,2,0
4401,3,0,-6,-1,-1,29,2,-1
4402,2,-1,-5,-1,-1,46,1,-1
4403,2,-2,-5,-1,-1,59,1,-1
4404,1,-2,-5,-1,-1,66,1,-1
4405,1,-3,-4,-1,0,70,1,-1
4406,1,-2,-4,-2,0,72,1,-1
4407,1,-2,-2,-3,1,74,1,-1
4408,1,-1,-1,-4,2,75,0,-1
4409,1,0,0,-4,3,75,-2,0
4410,0,1,1,-5,3,73,-4,1
4411,-1,1,3,-5,4,71,-6,2
4412,-2,1,6,-5,4,70,-8,2
4413,-2,1,8,-5,4,69,-9,3
4414,-3,1,10,-5,4,69,-9,3
4415,-3,1,11,-6,3,67,-8,2
4416,-4,0,11,-6,2,63,-7,0
4417,-4,-1,11,-6,1,57,-6,-1
4418,-4,-2,9,-6,0,51,-5,-2
4419,-3,-3,5,-5,-1,46,-5,-2
4420,-3,-3,1,-5,-1,41,-5,-2
4421,-3,-2,-4,-5,-2,36,-4,-2
4422,-3,-2,-8,-5,-3,32,-3,-2
4423,-3,-1,-10,-4,-3,28,-2,-2
4424,-2,0,-10,-4,-3,27,-1,-2
4425,-1,0,-8,-3,-2,28,0,-1
4426,1,0,-7,-3,-2,30,1,0
4427,2,-1,-7,-2,-2,31,2,1
4428,2,-1,-8,-2,-2,33,2,1
4429,2,-1,-9,-1,-2,32,3,1
4430,2,-1,-10,-1,-2,30,3,1
4431,1,-1,-10,-2,-2,28,2,0
4432,1,-1,-8,-3,-2,30,1,-1
4433,-1,-1,-5,-4,-3,33,-1,-2
4434,-2,-1,-1,-5,-3,36,-2,-3
4435,-4,-1,3,-6,-3,38,-3,-4
4436,-5,-1,7,-6,-2,37,-4,-5
4437,-5,-2,10,-6,-1,34,-5,-5
4438,-6,-3,13,-6,1,30,-5,-6
4439,-6,-4,15,-6,2,26,-7,-6
4440,-6,-6,16,-6,3,24,-8,-6
4441,-6,-7,18,-6,3,24,-8,-6
4442,-5,-8,18,-6,2,25,-9,-6
4443,-5,-8,18,-5,2,24,-8,-5
4444,-4,-8,17,-3,2,22,-7,-4
4445,-3,-8,15,-2,1,21,-6,-3
4446,-2,-8,14,-1,1,22,-5,-2
4447,-2,-7,13,0,1,23,-4,-2
4448,-2,-7,12,1,0,24,-3,-2
4449,-1,-6,11,2,-1,26,-2,-3
4450,-1,-5,9,3,-1,26,-2,-3
4451,-1,-5,7,3,-2,26,-2,-4
4452,-1,-5,5,2,-3,25,-2,-4
4453,-1,-5,4,1,-4,26,-3,-5
4454,0,-6,5,-1,-5,30,-3,-5
4455,0,-7,6,-2,-6,33,-4,-6
4456,0,-7,8,-4,-5,33,-4,-7
4457,-1,-8,10,-5,-5,28,-4,-7
4458,-1,-8,11,-6,-4,21,-4,-7
4459,-2,-8,13,-7,-3,15,-5,-7
4460,-3,-8,15,-8,-2,13,-6,-7
4461,-4,-8,17,-8,-2,15,-8,-7
4462,-5,-7,16,-8,-2,17,-10,-6
4463,-5,-7,14,-8,-2,18,-11,-5
4464,-4,-5,13,-8,-2,17,-12,-4
4465,-3,-4,12,-7,-2,15,-12,-4
4466,-2,-3,11,-6,-2,13,-11,-3
4467,-1,-2,10,-5,-3,12,-10,-2
4468,0,-1,9,-4,-3,11,-9,-2
4469,0,-1,7,-3,-3,7,-9,-2
4470,-1,-1,4,-2,-3,0,-8,-2
4471,-1,-2,2,-1,-3,-5,-7,-2
4472,-1,-2,4,1,-3,-3,-6,-2
4473,-1,-2,9,2,-3,3,-5,-2
4474,0,-1,13,4,-2,10,-3,-2
4475,2,0,14,6,-1,11,0,0
4476,3,2,11,8,1,5,2,2
4477,4,3,5,10,3,-7,4,3
4478,5,4,-1,11,4,-18,5,3
4479,6,4,-6,12,3,-24,6,2
4480,6,4,-9,13,2,-27,7,2
4481,7,4,-11,13,1,-27,8,1
4482,7,4,-11,13,0,-25,8,1
4483,6,5,-10,13,0,-22,8,2
4484,5,5,-8,13,-1,-19,8,3
4485,5,4,-7,13,-1,-19,7,3
4486,4,4,-7,13,-1,-21,6,3
4487,4,3,-7,13,0,-24,5,2
4488,4,2,-8,12,0,-26,3,2
4489,3,2,-6,11,-1,-24,2,2
4490,2,2,-1,10,-1,-15,0,1
4491,1,3,5,9,-1,-4,-2,1
4492,0,4,9,8,-1,4,-2,2
4493,-1,5,11,8,1,9,-3,4
4494,-1,6,12,8,2,13,-3,5
4495,-1,8,14,8,2,17,-2,6
4496,-2,8,15,9,2,22,-2,6
4497,-2,9,15,9,2,24,-1,6
4498,-3,9,13,10,1,22,-1,5
4499,-2,8,10,10,1,16,1,5
4500,-1,7,7,11,1,9,2,4
4501,1,6,4,11,1,3,3,4
4502,2,5,2,12,0,-1,3,4
4503,2,4,2,12,-1,-1,4,4
4504,2,3,1,11,-2,-1,4,4
4505,2,2,1,11,-2,2,3,4
4506,3,2,1,10,-2,6,3,4
4507,3,1,1,10,-2,8,3,4
4508,3,1,0,11,-2,7,3,4
4509,4,1,-2,11,-2,2,3,4
4510,4,1,-4,11,-2,-4,3,5
4511,4,1,-4,11,-1,-8,2,6
4512,3,1,-2,10,-1,-7,2,6
4513,2,0,2,9,-1,-1,0,6
4514,1,0,6,8,-1,7,-1,5
4515,0,0,8,6,-1,12,-2,5
4516,-1,0,9,5,-2,14,-3,4
4517,-2,0,8,4,-2,11,-4,4
4518,-2,0,7,3,-2,7,-4,4
4519,-2,0,7,3,-3,1,-5,3
4520,-1,-1,7,2,-2,-5,-5,3
4521,-1,-2,6,2,-2,-10,-4,2
4522,-1,-3,7,2,-2,-10,-4,2
4523,-1,-3,8,1,-2,-6,-4,2
4524,-1,-3,9,0,-1,2,-4,2
4525,-1,-2,11,-1,-1,8,-4,2
4526,-1,-1,12,-1,-1,13,-4,2
4527,-1,0,11,0,-1,16,-4,2
4528,-1,1,10,0,-1,17,-4,3
4529,-1,2,9,1,-2,18,-3,3
4530,0,2,8,1,-2,19,-2,3
4531,1,2,9,2,-3,22,-1,3
4532,2,2,10,2,-3,24,0,3
4533,2,1,11,3,-3,25,1,3
4534,3,1,10,4,-2,21,2,3
4535,3,0,8,4,-2,10,2,3
4536,3,-1,5,4,-1,-6,2,3
4537,3,-1,3,4,-1,-27,2,3
4538,2,-1,2,4,-1,-47,1,3
4539,1,-1,1,4,-1,-64,0,2
4540,1,-1,0,4,0,-75,-1,1
4541,1,-1,-1,4,0,-80,-1,1
4542,1,-1,-2,5,0,-79,0,0
4543,1,-1,-1,5,0,-77,1,0
4544,2,0,1,5,0,-75,1,0
4545,3,0,1,5,-1,-73,1,0
4546,4,0,2,5,-1,-70,0,0
4547,5,0,2,4,-2,-68,-1,0
4548,6,-1,2,4,-2,-65,-1,0
4549,7,-2,2,3,-2,-61,0,0
4550,8,-2,2,3,-2,-58,0,0
4551,8,-2,1,3,-2,-57,0,1
4552,8,-2,0,3,-2,-60,0,1
4553,7,-2,-1,2,-3,-63,0,1
4554,6,-2,-1,1,-4,-64,-1,1
4555,4,-2,1,-1,-5,-63,-1,-1
4556,3,-3,3,-2,-6,-59,-2,-2
4557,1,-3,4,-3,-7,-56,-1,-3
4558,-1,-2,3,-4,-7,-56,-1,-4
4559,-1,-2,2,-4,-6,-58,-2,-4
4560,-2,-2,1,-5,-6,-59,-2,-4
4561,-3,-2,1,-6,-6,-58,-3,-4
4562,-3,-3,1,-7,-6,-57,-4,-5
4563,-4,-3,1,-7,-6,-56,-4,-5
4564,-4,-4,0,-7,-5,-54,-4,-5
4565,-4,-4,0,-7,-5,-51,-3,-5
4566,-3,-5,1,-7,-5,-50,-3,-4
4567,-3,-5,2,-6,-5,-47,-4,-4
4568,-3,-5,2,-6,-5,-45,-4,-4
4569,-2,-5,3,-6,-5,-44,-5,-3
4570,-2,-5,2,-6,-5,-46,-5,-3
4571,-2,-6,2,-6,-5,-49,-4,-3
4572,-1,-7,1,-6,-5,-52,-3,-4
4573,-1,-8,1,-6,-5,-51,-2,-4
4574,0,-9,2,-6,-5,-49,-2,-5
4575,1,-10,3,-6,-5,-46,-1,-5
4576,2,-11,3,-6,-5,-43,-1,-5
4577,2,-11,4,-5,-5,-40,-1,-5
4578,2,-10,5,-5,-5,-38,-1,-5
4579,1,-8,4,-4,-5,-38,-1,-4
4580,1,-6,2,-3,-4,-40,-1,-4
4581,0,-5,0,-2,-3,-43,-2,-3
4582,-1,-4,-1,-2,-3,-45,-2,-3
