Time,F3 - C3,C3 - P3,P3 - O1,F4 - C4,C4 - P4,P4 - O2,FZ - CZ,CZ - PZ
1,1,-1,36,5,3,65,6,3
2,-1,-2,37,4,3,66,3,4
3,-3,-3,39,2,3,64,1,4
4,-5,-4,40,1,3,62,-1,4
5,-6,-5,40,-2,2,59,-2,4
6,-6,-6,38,-4,1,57,-2,3
7,-6,-7,34,-5,0,57,-2,1
8,-6,-9,30,-7,-2,57,-2,0
9,-6,-10,25,-7,-3,57,-1,-2
10,-6,-10,22,-7,-4,56,0,-3
11,-5,-10,20,-7,-5,55,0,-4
12,-6,-9,18,-7,-5,54,0,-5
13,-6,-7,18,-6,-5,54,-1,-5
14,-7,-5,17,-7,-4,53,-1,-5
15,-6,-4,16,-7,-4,52,-2,-5
16,-6,-3,14,-8,-3,51,-2,-5
17,-5,-2,12,-8,-3,50,-2,-5
18,-3,-1,11,-7,-3,50,-1,-5
19,-2,1,10,-6,-3,50,1,-5
20,-1,2,8,-5,-2,49,2,-4
21,-1,3,7,-3,0,48,3,-3
22,0,4,8,-2,1,48,3,-1
23,1,4,9,-1,3,48,4,1
24,1,3,11,1,3,49,4,2
25,1,3,14,3,3,50,4,2
26,1,2,16,4,3,49,4,3
27,0,2,16,5,4,48,4,3
28,-1,2,14,5,4,45,4,3
29,-3,3,11,5,4,43,5,3
30,-4,3,8,5,4,40,6,3
31,-5,2,4,4,3,38,7,2
32,-5,2,2,3,2,36,7,0
33,-5,2,2,1,1,35,8,-1
34,-4,2,4,-1,0,34,7,-2
35,-4,1,6,-3,-2,35,7,-3
36,-5,1,7,-5,-3,36,6,-4
37,-5,-1,7,-7,-5,37,4,-5
38,-5,-2,5,-7,-6,36,3,-6
39,-5,-3,3,-8,-7,35,2,-7
40,-4,-4,1,-8,-7,35,2,-7
41,-3,-4,0,-8,-7,35,2,-7
42,-3,-3,0,-7,-7,34,2,-7
43,-3,-1,0,-6,-6,34,2,-6
44,-3,1,-1,-6,-6,33,3,-5
45,-3,2,-1,-5,-4,32,3,-5
46,-3,2,-1,-5,-3,31,3,-4
47,-3,2,1,-5,-1,31,3,-3
48,-2,2,2,-5,1,31,3,-2
49,-2,1,3,-5,2,31,3,-1
50,-2,1,6,-3,3,32,3,0
51,-2,1,8,-2,3,33,3,2
52,-4,1,10,-1,3,34,2,2
53,-6,1,11,0,2,34,0,2
54,-7,1,12,0,1,33,-1,2
55,-8,1,11,-1,-1,31,-2,1
56,-8,1,9,-2,-3,28,-2,1
57,-7,0,5,-2,-4,25,-1,0
58,-5,-1,0,-3,-6,23,1,-1
59,-4,-3,-4,-3,-7,22,2,-3
60,-3,-5,-6,-3,-8,22,2,-4
61,-2,-6,-7,-3,-8,21,3,-5
62,-2,-5,-7,-2,-8,21,3,-5
63,-3,-4,-7,-1,-8,20,3,-5
64,-4,-3,-5,0,-7,21,3,-4
65,-4,-2,-4,1,-7,22,2,-4
66,-5,-2,-6,1,-7,21,0,-4
67,-5,-2,-9,0,-7,18,-1,-4
68,-4,-3,-11,0,-7,17,-2,-5
69,-3,-3,-11,0,-7,17,-1,-5
70,-2,-2,-8,1,-6,18,0,-5
71,-1,-2,-5,2,-5,18,1,-4
72,-1,-2,-2,3,-3,17,2,-3
73,0,-2,2,4,-2,16,3,-1
74,0,-1,4,5,0,15,3,2
75,-1,1,7,6,2,15,2,5
76,-1,2,10,6,3,17,2,7
77,-1,2,12,5,4,20,1,8
78,-1,2,12,4,4,23,1,8
79,-1,2,8,3,4,24,0,8
80,0,1,4,1,3,25,0,7
81,0,0,2,-1,1,25,-1,6
82,0,-1,1,-2,-1,25,-1,5
83,0,-2,-1,-3,-3,23,-3,4
84,0,-3,-4,-5,-5,21,-4,3
85,-1,-4,-6,-6,-6,18,-5,1
86,-1,-4,-9,-6,-7,16,-5,1
87,0,-3,-10,-6,-7,15,-5,1
88,2,-3,-11,-6,-8,15,-4,1
89,3,-2,-11,-5,-8,15,-2,2
90,3,-1,-11,-4,-8,14,-1,1
91,3,-1,-12,-4,-9,13,0,1
92,3,-1,-13,-5,-9,11,0,0
93,2,-1,-13,-5,-9,8,-1,-1
94,2,-1,-13,-4,-9,6,-2,-1
95,1,0,-13,-3,-9,6,-3,0
96,0,2,-12,-2,-9,6,-3,0
97,-1,3,-10,-1,-8,6,-3,1
98,-3,5,-9,0,-7,7,-2,2
99,-4,5,-8,1,-5,7,-2,2
100,-4,6,-7,1,-4,7,-1,2
101,-3,6,-5,2,-2,7,0,3
102,-3,7,-5,3,-2,7,1,3
103,-2,7,-6,4,-1,5,2,4
104,-2,7,-8,5,-1,2,3,5
105,-1,6,-10,5,-1,-2,4,5
106,0,5,-13,5,-1,-5,5,5
107,0,4,-15,4,-1,-7,6,4
108,0,3,-18,4,-2,-8,6,2
109,0,1,-20,4,-2,-9,6,0
110,0,0,-21,3,-2,-11,5,-1
111,0,-1,-22,2,-1,-11,4,-2
112,0,-2,-22,1,-1,-11,3,-2
113,0,-2,-22,0,-1,-11,2,-2
114,-1,-1,-23,0,-1,-10,1,-2
115,-2,-1,-24,1,-1,-9,1,-2
116,-2,0,-23,2,-1,-8,1,-3
117,-3,1,-21,2,-1,-6,1,-3
118,-3,1,-18,2,0,-5,2,-4
119,-3,1,-17,2,0,-5,1,-5
120,-3,2,-19,2,-1,-6,1,-6
121,-3,2,-21,2,-1,-7,1,-7
122,-3,2,-22,2,-1,-7,1,-6
123,-3,2,-20,3,-1,-7,1,-5
124,-2,4,-16,4,1,-5,0,-3
125,-2,6,-11,5,2,-3,0,-1
126,-2,7,-7,6,3,-3,-1,1
127,-1,7,-4,7,4,-4,-1,3
128,-1,7,-4,7,4,-6,-1,4
129,-1,6,-5,7,3,-9,-1,4
130,-1,4,-8,6,2,-11,-1,3
131,-1,3,-11,5,1,-13,0,3
132,-2,1,-12,4,0,-15,1,1
133,-2,1,-13,2,0,-17,1,0
134,-2,1,-15,1,-1,-18,1,-1
135,-3,0,-16,0,-2,-19,0,-2
136,-3,0,-16,-1,-2,-17,0,-2
137,-4,0,-16,-2,-3,-14,-1,-3
138,-5,0,-17,-3,-3,-11,-1,-3
139,-5,1,-18,-3,-3,-7,-1,-3
140,-4,1,-19,-3,-3,-4,-1,-3
141,-4,3,-20,-3,-2,-2,0,-4
142,-3,4,-21,-2,-2,-1,1,-4
143,-3,4,-21,-1,-1,0,1,-3
144,-2,4,-19,1,-1,1,2,-2
145,0,4,-18,3,0,2,2,-1
146,1,4,-16,5,1,3,3,1
147,2,4,-15,7,1,4,3,2
148,3,4,-15,9,2,4,2,3
149,3,4,-15,10,3,4,2,4
150,3,4,-14,10,4,4,1,4
151,2,3,-12,9,5,7,0,5
152,1,3,-8,8,7,11,-1,5
153,-1,4,-3,6,7,14,-2,5
154,-2,4,0,5,7,17,-3,6
155,-2,4,1,4,7,17,-3,6
156,-1,3,2,4,6,15,-4,6
157,0,3,3,4,5,13,-4,6
158,1,2,2,4,4,11,-4,6
159,1,2,2,4,3,9,-3,5
160,1,1,2,3,3,8,-2,4
161,2,-1,4,3,2,8,-1,2
162,2,-2,8,3,1,9,0,0
163,3,-4,11,2,1,10,1,-2
164,4,-6,15,2,0,12,1,-3
165,4,-8,17,1,0,13,-1,-4
166,4,-8,16,1,-1,13,-1,-4
167,4,-8,14,1,-1,13,-2,-4
168,4,-8,12,1,-2,13,-2,-4
169,4,-8,11,2,-2,12,-2,-4
170,5,-8,10,3,-2,11,-2,-5
171,6,-7,9,4,-1,11,-1,-4
172,8,-6,8,6,0,11,0,-4
173,9,-5,8,7,2,13,1,-2
174,9,-3,9,8,4,14,2,-1
175,9,0,10,9,6,16,3,1
176,8,3,12,10,8,17,5,3
177,8,5,14,11,10,17,6,4
178,8,8,18,12,11,18,7,6
179,8,11,23,12,13,20,7,7
180,7,14,27,11,13,22,7,9
181,6,16,30,10,13,24,5,11
182,5,16,32,8,12,26,3,11
183,4,13,31,5,11,27,1,10
184,4,10,30,3,9,29,-1,9
185,3,7,29,1,8,31,-3,6
186,2,4,28,-1,6,33,-4,4
187,1,1,28,-3,4,34,-6,1
188,-1,-1,28,-5,3,34,-6,-2
189,-2,-3,28,-6,1,33,-5,-3
190,-2,-4,26,-6,-1,32,-4,-5
191,-2,-5,23,-6,-2,32,-2,-6
192,-2,-5,22,-5,-3,33,-1,-6
193,-1,-4,21,-5,-3,33,1,-6
194,-1,-2,20,-4,-4,33,2,-5
195,-1,0,20,-3,-4,32,2,-4
196,1,2,17,-3,-4,29,3,-3
197,2,3,14,-2,-3,26,4,-2
198,3,4,10,-1,-2,24,4,-1
199,3,6,6,1,-2,22,5,0
200,4,7,3,3,-1,22,5,2
201,5,9,0,4,0,22,6,3
202,5,11,-1,6,2,23,7,4
203,6,11,-1,7,4,24,8,5
204,6,11,1,9,5,24,8,7
205,6,11,4,9,6,24,8,8
206,6,10,9,9,6,25,8,9
207,6,10,14,9,6,26,7,9
208,6,9,20,9,5,27,7,9
209,6,8,24,8,5,29,6,8
210,5,7,27,7,4,31,6,7
211,4,6,31,6,3,33,5,6
212,3,4,34,5,2,35,3,5
213,1,2,36,3,0,37,1,4
214,0,1,40,0,-1,38,-1,3
215,-1,-1,43,-2,-1,39,-2,3
216,-1,-2,46,-4,-2,39,-2,2
217,-1,-4,49,-5,-2,39,-2,1
218,-1,-6,53,-6,-3,40,-2,-1
219,0,-7,56,-5,-3,41,-2,-2
220,1,-8,57,-5,-3,41,-2,-3
221,2,-7,56,-3,-3,39,-1,-3
222,3,-6,53,-1,-3,38,1,-2
223,5,-4,52,2,-2,39,2,-1
224,6,-1,51,5,0,39,4,1
225,7,2,51,7,1,40,6,3
226,7,5,51,9,2,41,7,5
227,7,7,52,10,3,41,8,7
228,7,9,54,11,3,41,8,8
229,6,10,55,11,4,40,7,9
230,6,11,56,11,3,38,6,10
231,5,10,55,10,3,35,5,10
232,5,9,53,9,3,31,5,10
233,5,8,49,8,3,26,5,10
234,5,6,46,6,4,21,5,9
235,5,4,41,5,4,17,5,7
236,4,2,37,3,4,14,5,6
237,4,-1,33,1,3,13,5,3
238,3,-4,30,-1,2,12,4,1
239,2,-6,28,-3,1,12,3,-1
240,1,-7,27,-4,-1,13,2,-3
241,0,-8,27,-5,-3,14,1,-5
242,-1,-8,27,-7,-4,15,0,-6
243,-2,-8,28,-9,-4,17,-2,-7
244,-3,-7,29,-10,-4,19,-3,-7
245,-4,-6,29,-11,-4,22,-4,-7
246,-4,-5,29,-11,-3,24,-4,-7
247,-4,-3,28,-10,-1,26,-5,-6
248,-3,-2,27,-9,0,27,-4,-5
249,-1,-1,27,-7,2,28,-4,-5
250,2,0,28,-5,4,29,-3,-4
251,3,1,30,-3,5,28,-1,-3
252,4,2,33,-2,6,25,0,-3
253,4,2,34,-1,6,21,1,-3
254,4,2,33,-1,5,18,1,-3
255,3,2,31,-1,4,15,1,-3
256,3,1,27,-1,2,12,1,-3
257,2,0,22,-1,0,11,1,-3
258,2,-1,20,-2,-2,12,0,-3
259,2,-2,29,-2,-2,16,0,-3
260,2,-3,48,-3,-1,24,-1,-3
261,2,-5,66,-4,-1,32,-1,-3
262,1,-6,75,-5,0,35,-2,-4
263,1,-8,68,-7,-1,32,-2,-5
264,1,-9,46,-9,-2,22,-3,-6
265,1,-11,19,-11,-4,11,-3,-6
266,1,-12,-5,-12,-5,4,-3,-7
267,1,-12,-18,-11,-5,2,-4,-7
268,1,-11,-20,-10,-6,4,-4,-8
269,0,-9,-16,-9,-6,8,-4,-8
270,-1,-7,-14,-7,-6,11,-3,-8
271,-1,-5,-15,-6,-5,13,-2,-7
272,0,-3,-17,-4,-4,13,-1,-6
273,2,-1,-19,-3,-2,14,0,-4
274,3,1,-19,-1,0,16,1,-3
275,3,2,-17,1,2,17,1,-1
276,2,3,-13,2,4,17,1,1
277,1,3,-9,3,5,18,1,2
278,-1,3,-5,3,6,19,0,3
279,-2,3,0,3,7,22,0,3
280,-3,3,4,2,7,26,-1,3
281,-3,1,6,1,7,28,-2,2
282,-5,-1,8,0,6,29,-3,1
283,-6,-3,8,-1,4,29,-5,0
284,-7,-6,8,-2,3,27,-6,-1
285,-9,-8,8,-3,1,25,-7,-3
286,-9,-10,6,-4,-1,23,-7,-5
287,-10,-11,3,-5,-2,21,-7,-6
288,-10,-12,-1,-5,-3,19,-7,-8
289,-10,-12,-5,-5,-3,19,-7,-9
290,-10,-12,-7,-5,-4,20,-7,-10
291,-9,-12,-8,-5,-5,22,-7,-11
292,-9,-11,-8,-5,-5,24,-7,-11
293,-8,-10,-7,-5,-5,25,-7,-11
294,-8,-9,-7,-6,-5,25,-7,-10
295,-7,-7,-6,-5,-4,24,-7,-8
296,-6,-5,-5,-5,-3,23,-6,-6
297,-5,-2,-4,-4,-1,24,-6,-4
298,-4,1,5,-3,1,27,-5,-2
299,-3,5,26,-1,4,32,-3,1
300,-1,8,60,2,6,38,0,2
301,1,11,100,4,8,44,2,4
302,3,13,139,7,9,49,4,5
303,4,14,167,9,9,53,5,6
304,5,14,180,11,8,55,5,6
305,4,13,182,10,6,57,4,6
306,3,12,180,9,5,59,2,6
307,1,10,178,6,4,59,-1,5
308,-1,7,178,2,3,58,-3,4
309,-3,3,176,-1,2,57,-5,2
310,-5,-1,172,-3,2,56,-7,0
311,-7,-4,168,-5,0,55,-8,-2
312,-10,-7,162,-6,-1,54,-8,-4
313,-12,-9,156,-8,-3,51,-8,-6
314,-13,-11,149,-9,-3,47,-8,-8
315,-13,-12,142,-10,-4,43,-8,-9
316,-13,-12,136,-10,-4,39,-8,-11
317,-12,-11,131,-10,-3,38,-9,-11
318,-12,-11,126,-9,-3,36,-9,-11
319,-10,-10,121,-8,-2,35,-8,-11
320,-8,-8,115,-7,-1,34,-7,-10
321,-5,-7,108,-5,0,34,-4,-8
322,-1,-4,99,-3,2,33,-1,-7
323,1,-1,91,0,3,33,2,-5
324,2,3,83,1,4,33,3,-4
325,2,6,79,2,5,33,4,-2
326,2,9,75,3,6,33,4,-1
327,3,12,71,5,7,34,5,2
328,4,15,68,7,7,35,5,4
329,5,16,65,9,7,35,5,6
330,5,16,62,10,7,35,4,8
331,5,14,60,9,7,35,4,8
332,3,12,57,7,6,33,2,7
333,-1,8,54,4,5,30,-1,4
334,-4,5,53,1,3,29,-4,2
335,-7,1,54,-2,2,30,-7,0
336,-9,-2,59,-5,0,33,-9,-2
337,-10,-4,65,-7,-2,38,-11,-3
338,-10,-7,71,-10,-4,42,-13,-5
339,-11,-9,75,-12,-5,45,-14,-7
340,-12,-10,74,-13,-6,44,-14,-9
341,-12,-11,70,-13,-7,42,-14,-10
342,-12,-11,63,-13,-7,40,-14,-11
343,-11,-11,54,-12,-7,38,-12,-12
344,-10,-11,42,-11,-7,36,-11,-12
345,-8,-11,30,-10,-5,34,-10,-12
346,-6,-11,18,-9,-4,31,-8,-10
347,-4,-10,7,-8,-3,27,-6,-9
348,-2,-9,-2,-6,-1,24,-4,-7
349,0,-6,-7,-4,-1,22,-2,-6
350,1,-3,-11,-2,0,21,-1,-4
351,2,0,-12,1,1,21,1,-1
352,3,2,-12,3,2,21,2,1
353,4,4,-12,4,4,20,3,3
354,5,4,-11,5,5,19,2,5
355,5,4,-10,6,6,19,1,6
356,5,4,-7,6,6,20,-1,6
357,4,3,-4,5,5,21,-2,6
358,2,2,-1,5,4,23,-4,5
359,-1,1,0,4,2,24,-4,4
360,-4,-1,1,2,-1,24,-4,1
361,-6,-3,1,1,-2,24,-4,-2
362,-7,-6,1,-1,-3,25,-3,-4
363,-7,-9,1,-2,-4,26,-3,-7
364,-6,-11,1,-3,-5,27,-3,-8
365,-5,-13,0,-4,-6,27,-3,-9
366,-5,-14,-2,-4,-6,26,-3,-10
367,-4,-14,-6,-5,-6,23,-4,-10
368,-4,-13,-13,-5,-6,21,-4,-10
369,-4,-13,-23,-5,-7,19,-3,-10
370,-4,-12,-33,-4,-7,17,-2,-9
371,-3,-10,-40,-2,-7,16,-1,-9
372,-2,-8,-43,-1,-7,16,-1,-9
373,-1,-6,-45,1,-6,16,0,-8
374,1,-3,-47,3,-4,16,1,-8
375,3,-2,-54,4,-3,14,2,-7
376,5,-1,-69,6,-2,12,4,-7
377,6,0,-95,7,0,8,5,-6
378,8,0,-130,7,1,2,6,-6
379,9,1,-168,8,3,-5,7,-5
380,9,3,-201,8,4,-11,7,-3
381,10,5,-226,9,5,-16,8,-1
382,11,7,-237,9,5,-18,9,1
383,12,8,-238,9,6,-20,9,2
384,12,7,-233,9,7,-21,9,3
385,11,5,-227,8,7,-21,9,3
386,10,1,-222,8,6,-21,8,2
387,9,-2,-216,7,5,-21,7,0
388,8,-5,-209,6,3,-20,5,-2
389,6,-8,-202,6,1,-20,4,-3
390,5,-10,-195,5,0,-21,3,-5
391,4,-11,-192,5,-1,-23,3,-6
392,4,-12,-189,5,-2,-24,3,-7
393,4,-12,-186,4,-3,-24,3,-7
394,5,-11,-183,4,-3,-23,3,-6
395,5,-11,-182,3,-2,-21,4,-6
396,6,-9,-181,3,-2,-19,5,-5
397,6,-8,-178,3,-1,-18,5,-5
398,6,-7,-173,3,-1,-17,6,-5
399,6,-5,-166,3,1,-14,5,-4
400,5,-4,-159,3,2,-11,5,-4
401,5,-2,-153,2,2,-8,4,-3
402,4,0,-148,2,3,-4,3,-3
403,4,2,-145,1,3,0,3,-2
404,3,4,-141,1,3,3,3,-2
405,3,5,-138,2,2,5,4,-2
406,2,6,-135,3,2,5,4,-1
407,1,8,-133,4,1,6,4,0
408,-1,9,-132,5,2,7,4,1
409,-3,9,-130,5,2,8,3,2
410,-4,9,-128,4,2,8,2,2
411,-5,7,-124,2,2,9,1,2
412,-6,5,-121,0,2,9,-1,1
413,-6,2,-117,-3,2,9,-2,0
414,-7,0,-114,-5,1,10,-4,-1
415,-7,-2,-112,-7,1,11,-4,-2
416,-7,-4,-108,-9,0,12,-5,-3
417,-8,-4,-102,-10,0,14,-6,-3
418,-8,-5,-96,-11,0,16,-6,-2
419,-8,-5,-92,-12,0,17,-6,-2
420,-8,-5,-93,-11,0,15,-6,-2
421,-8,-5,-98,-11,0,10,-6,-2
422,-7,-5,-108,-11,1,5,-6,-2
423,-6,-6,-120,-11,1,-1,-6,-2
424,-5,-7,-129,-10,1,-4,-5,-2
425,-3,-7,-135,-9,2,-4,-5,-2
426,-1,-6,-134,-8,2,-2,-4,-2
427,0,-5,-128,-7,2,0,-3,-1
428,2,-3,-122,-6,2,2,-2,0
429,3,-1,-120,-5,3,2,-1,1
430,3,1,-123,-3,3,0,-1,2
431,4,2,-131,-3,4,-4,0,2
432,3,3,-139,-2,5,-8,1,3
433,3,3,-145,-3,5,-11,1,3
434,3,2,-146,-3,5,-14,1,2
435,3,1,-142,-4,4,-16,1,2
436,3,-1,-135,-5,2,-16,1,1
437,2,-3,-128,-5,0,-15,0,0
438,1,-5,-122,-6,-2,-14,-1,-1
439,-1,-6,-116,-7,-3,-13,-2,-2
440,-2,-7,-111,-8,-4,-14,-3,-3
441,-3,-8,-110,-10,-4,-16,-3,-4
442,-3,-9,-115,-11,-5,-18,-4,-5
443,-2,-10,-124,-11,-5,-21,-4,-5
444,-1,-10,-132,-11,-4,-22,-3,-5
445,-1,-9,-140,-11,-4,-24,-3,-5
446,-1,-8,-145,-10,-4,-26,-3,-5
447,-1,-7,-148,-10,-4,-30,-2,-5
448,0,-7,-150,-9,-5,-33,-2,-6
449,0,-7,-152,-9,-5,-35,-2,-6
450,0,-6,-154,-8,-5,-37,-1,-6
451,-1,-5,-156,-7,-5,-37,0,-6
452,-2,-4,-158,-6,-4,-37,1,-6
453,-3,-4,-159,-6,-3,-38,1,-6
454,-3,-4,-160,-5,-3,-39,1,-6
455,-3,-3,-161,-5,-3,-39,1,-5
456,-3,-3,-162,-5,-3,-38,1,-4
457,-2,-3,-162,-4,-3,-37,1,-4
458,-2,-3,-162,-3,-3,-36,1,-3
459,-3,-3,-161,-3,-4,-36,-1,-2
460,-2,-3,-159,-2,-4,-37,-1,-2
461,-2,-4,-158,-2,-5,-39,-2,-1
462,-1,-4,-155,-1,-5,-41,-2,-1
463,1,-4,-152,-1,-4,-43,-2,-2
464,2,-4,-146,0,-3,-47,-2,-2
465,3,-3,-140,0,-2,-52,-1,-2
466,3,-3,-134,0,-2,-57,-1,-2
467,3,-2,-131,-1,-2,-63,0,-2
468,4,-2,-129,-1,-2,-68,0,-2
469,4,-1,-129,-2,-2,-74,1,-2
470,4,-1,-130,-1,-3,-81,1,-2
471,5,0,-134,-1,-3,-89,1,-2
472,5,0,-140,0,-3,-96,1,-3
473,5,1,-146,0,-3,-102,1,-3
474,5,2,-151,0,-3,-106,0,-3
475,5,2,-154,0,-3,-107,0,-3
476,6,2,-157,0,-3,-108,0,-3
477,6,1,-158,0,-3,-108,-1,-3
478,7,1,-158,0,-3,-107,-1,-2
479,7,0,-157,0,-3,-107,-2,-1
480,6,0,-153,0,-2,-105,-2,-1
481,5,1,-147,1,-2,-102,-2,-1
482,4,2,-140,2,-2,-98,-2,-1
483,3,3,-133,3,-1,-93,-1,-1
484,2,3,-123,3,-1,-86,0,-1
485,2,2,-110,4,0,-77,2,-1
486,2,1,-97,3,-1,-68,3,-2
487,2,-1,-88,3,-1,-62,3,-2
488,2,-2,-84,2,-2,-60,3,-3
489,2,-4,-86,2,-4,-62,2,-5
490,1,-4,-92,1,-5,-64,1,-5
491,1,-5,-100,-1,-5,-67,-1,-5
492,1,-5,-109,-2,-5,-69,-1,-5
493,1,-4,-118,-2,-4,-70,-1,-5
494,2,-4,-127,-2,-4,-72,-1,-5
495,3,-4,-137,-2,-3,-75,1,-5
496,3,-4,-147,-1,-3,-78,2,-5
497,3,-5,-156,-1,-3,-82,3,-5
498,3,-5,-161,-1,-3,-83,3,-5
499,3,-4,-164,-1,-3,-83,4,-5
500,2,-4,-161,-1,-3,-81,3,-4
501,2,-3,-154,-1,-3,-78,3,-3
502,1,-2,-143,-1,-3,-74,2,-3
503,1,0,-129,-1,-4,-70,1,-2
504,0,1,-115,-1,-4,-66,0,-1
505,-1,1,-102,-1,-4,-61,-1,-1
506,-2,1,-92,-2,-4,-57,-1,-2
507,-2,1,-81,-2,-4,-52,-2,-3
508,-3,0,-71,-3,-3,-46,-2,-3
509,-3,-1,-62,-3,-3,-40,-2,-4
510,-2,-1,-56,-2,-4,-36,-2,-4
511,-2,-1,-55,-1,-4,-34,-1,-4
512,-1,1,-59,0,-4,-35,0,-3
513,0,2,-65,2,-3,-38,1,-2
514,0,4,-71,3,-2,-41,1,-1
515,0,4,-74,4,-1,-44,1,1
516,1,5,-72,4,0,-43,2,2
517,1,5,-69,5,1,-42,2,2
518,1,4,-67,5,2,-41,3,2
519,1,3,-66,4,2,-41,3,2
520,1,3,-65,3,2,-41,3,1
521,-1,3,-63,2,2,-41,2,1
522,-2,4,-61,2,1,-40,2,2
523,-2,4,-60,1,1,-39,2,2
524,-1,4,-59,1,1,-38,3,1
525,0,3,-57,1,1,-37,4,1
526,1,2,-53,1,0,-34,5,0
527,2,1,-49,2,0,-31,6,-1
528,3,0,-44,3,0,-26,7,-1
529,3,1,-38,4,0,-21,7,0
530,3,2,-34,5,1,-16,7,1
531,3,4,-33,5,2,-13,7,2
532,4,4,-33,5,4,-10,7,2
533,4,5,-35,5,4,-8,8,3
534,4,5,-37,5,5,-6,8,4
535,4,6,-36,5,4,-5,7,4
536,3,6,-32,4,4,-3,6,5
537,2,6,-28,3,3,-3,5,5
538,2,6,-24,2,2,-3,4,4
539,1,5,-22,1,1,-5,3,3
540,1,4,-22,1,-1,-8,3,3
541,1,4,-22,2,-1,-11,4,2
542,1,3,-22,4,-2,-14,4,1
543,2,3,-20,5,-3,-17,5,1
544,2,3,-19,5,-2,-19,5,1
545,3,3,-18,6,-2,-21,5,2
546,3,3,-16,7,-1,-22,6,2
547,2,4,-14,7,-1,-22,7,2
548,1,4,-12,8,0,-22,7,3
549,0,4,-9,8,-1,-21,7,3
550,-1,4,-7,8,-1,-20,6,4
551,-2,3,-5,8,-2,-19,5,3
552,-2,2,-4,7,-3,-19,3,2
553,-1,2,-4,6,-3,-19,2,2
554,0,1,-4,6,-3,-20,2,1
555,2,0,-2,7,-3,-21,2,1
556,3,-1,2,6,-2,-21,2,2
557,4,-2,6,5,-2,-20,2,2
558,4,-3,11,4,-1,-18,1,2
559,3,-3,15,2,0,-15,0,2
560,2,-2,17,1,1,-13,-1,2
561,2,0,16,0,1,-13,-1,2
562,2,2,16,0,2,-14,-1,2
563,2,2,16,0,1,-16,0,2
564,2,2,14,1,0,-19,0,2
565,3,1,12,1,-1,-22,-1,2
566,3,-1,8,1,-1,-25,-1,1
567,3,-2,4,1,-2,-27,-1,0
568,3,-3,-1,1,-2,-30,0,-1
569,1,-4,-4,1,-1,-32,-1,-1
570,0,-4,-6,0,-1,-32,-1,-1
571,-1,-5,-6,0,-1,-30,-2,-1
572,-1,-5,-4,1,-1,-27,-3,-1
573,0,-4,-3,1,-1,-23,-3,-1
574,0,-3,-3,2,-1,-19,-3,-1
575,0,-2,-3,3,-1,-18,-2,0
576,-2,-1,-1,2,0,-17,-3,0
577,-3,0,-1,1,0,-18,-4,0
578,-5,-1,-2,-1,0,-19,-5,0
579,-5,-2,-3,-2,0,-19,-7,-1
580,-4,-3,-4,-3,0,-19,-7,-2
581,-3,-5,-3,-4,-1,-18,-8,-3
582,-3,-5,-1,-4,-1,-16,-7,-4
583,-3,-5,1,-4,-1,-14,-7,-4
584,-3,-4,2,-3,-1,-12,-6,-4
585,-3,-3,0,-2,-1,-11,-6,-4
586,-1,-2,-1,-1,0,-10,-5,-3
587,0,0,-2,1,1,-9,-4,-2
588,1,1,-2,1,1,-8,-3,-1
589,1,1,-2,1,0,-8,-3,-1
590,1,1,-2,1,0,-9,-2,-1
591,1,1,-3,0,-1,-11,-1,-1
592,1,1,-3,-1,-1,-14,0,-2
593,0,1,-2,-2,-1,-16,1,-2
594,0,1,-1,-2,-1,-17,1,-2
595,-1,1,0,-2,0,-17,0,-2
596,-1,1,2,-2,1,-17,-2,-2
597,-2,1,4,-2,2,-16,-3,-2
598,-2,1,7,-3,2,-14,-4,-2
599,-2,2,9,-3,2,-12,-4,-2
600,-2,2,11,-4,1,-10,-5,-2
601,-2,2,13,-4,0,-9,-5,-1
602,-2,3,13,-4,-1,-7,-4,-1
603,-3,3,13,-4,0,-5,-4,-1
604,-3,4,13,-3,0,-2,-2,0
605,-3,4,14,-3,1,1,-1,1
606,-2,5,14,-3,2,3,-1,2
607,-1,6,16,-2,3,5,0,3
608,-1,7,17,-2,4,6,-1,3
609,-1,8,18,-1,4,8,-1,3
610,-2,9,18,0,4,10,-1,3
611,-3,9,18,1,4,13,-1,3
612,-4,9,18,1,4,16,-2,3
613,-5,9,18,0,3,18,-3,3
614,-5,9,17,0,3,19,-3,3
615,-5,9,17,1,3,20,-3,4
616,-4,9,15,1,3,20,-2,5
617,-3,8,14,1,4,19,-1,5
618,-3,7,13,0,3,18,1,4
619,-3,6,14,0,3,17,2,3
620,-2,6,15,0,3,18,2,2
621,-2,7,16,0,2,20,3,2
622,-3,9,16,1,2,22,3,2
623,-3,10,14,1,2,25,3,2
624,-4,11,14,1,1,26,3,2
625,-4,11,16,1,1,26,2,0
626,-5,10,17,0,1,26,1,-1
627,-5,9,19,-2,1,27,0,-3
628,-6,8,21,-3,0,29,-1,-4
629,-6,7,22,-4,-1,30,-3,-4
630,-6,6,24,-6,-1,31,-4,-4
631,-6,6,25,-6,0,30,-5,-4
632,-4,6,27,-6,1,30,-5,-3
633,-2,6,30,-6,2,31,-5,-2
634,-1,6,30,-5,3,35,-5,-2
635,0,6,29,-5,3,38,-6,-1
636,0,5,27,-5,4,40,-7,-1
637,0,5,24,-6,3,40,-7,-1
638,0,4,22,-5,3,37,-7,-2
639,0,4,20,-5,3,34,-6,-2
640,0,4,18,-4,2,32,-5,-2
641,0,4,18,-3,1,30,-3,-2
642,0,4,18,-3,1,29,-3,-2
643,1,3,18,-2,0,27,-2,-2
644,3,3,19,-2,0,25,-1,-2
645,4,3,20,-1,1,23,1,-2
646,6,3,20,1,2,21,2,-1
647,6,4,18,2,2,20,3,-1
648,5,5,17,2,3,20,4,0
649,4,6,18,2,3,20,4,0
650,2,7,19,1,2,19,2,0
651,1,6,20,0,1,19,0,0
652,0,6,20,0,0,19,-1,0
653,1,5,19,1,-1,19,-1,0
654,2,5,18,3,-1,18,0,1
655,4,5,18,4,0,18,1,1
656,5,6,20,5,1,16,3,2
657,6,6,23,6,2,15,3,3
658,6,7,27,5,3,14,3,3
659,5,7,32,4,3,15,3,4
660,3,6,36,3,3,15,2,3
661,2,6,38,2,3,14,2,3
662,2,5,38,1,2,13,2,2
663,2,4,37,1,2,10,1,2
664,2,4,35,2,1,5,1,2
665,2,4,30,2,1,-3,0,2
666,3,4,25,3,1,-12,0,2
667,3,3,21,3,1,-21,1,1
668,4,3,17,3,1,-29,1,-1
669,4,2,14,4,1,-35,2,-1
670,4,2,9,4,1,-38,2,-1
671,4,3,5,5,1,-39,3,-1
672,3,4,1,6,1,-39,3,-1
673,2,4,0,7,0,-38,3,-1
674,2,5,3,7,0,-37,3,-1
675,2,5,7,6,0,-36,3,-1
676,2,5,11,6,0,-35,3,-1
677,2,5,14,6,1,-34,3,-1
678,2,5,14,5,1,-31,3,0
679,2,4,12,5,1,-27,2,1
680,1,4,6,3,1,-24,1,1
681,1,3,-2,1,1,-22,-1,0
682,-1,3,-9,-1,1,-20,-2,-1
683,-2,3,-15,-2,1,-18,-3,-1
684,-2,2,-18,-2,1,-15,-4,-1
685,-2,2,-20,-1,1,-13,-3,0
686,-2,2,-20,1,2,-12,-3,1
687,-2,1,-19,2,2,-14,-2,3
688,-1,0,-20,3,1,-18,-2,3
689,1,-2,-21,2,1,-23,-2,4
690,2,-4,-21,1,0,-28,-2,3
691,2,-5,-20,0,-1,-34,-3,2
692,1,-5,-19,-1,-1,-39,-2,2
693,1,-5,-20,-1,-1,-43,-2,1
694,0,-4,-21,-1,-1,-47,-1,1
695,-1,-2,-20,0,-1,-48,1,1
696,-1,-1,-18,1,-1,-48,2,2
697,-2,0,-17,2,-1,-47,2,2
698,-3,1,-17,3,-1,-46,3,3
699,-3,1,-17,4,-1,-45,2,3
700,-4,1,-15,4,0,-42,1,4
701,-4,0,-12,5,1,-40,1,4
702,-3,-1,-9,5,1,-38,0,5
703,-2,-1,-7,6,1,-36,1,5
704,-1,-2,-5,6,1,-36,2,5
705,0,-2,-4,6,1,-35,3,4
706,0,-3,-4,5,0,-34,4,4
707,1,-2,-4,4,-1,-32,4,3
708,1,-2,-4,3,-1,-28,3,4
709,1,-1,-2,3,-1,-24,3,4
710,2,-1,-1,2,-2,-20,2,4
711,1,-1,0,2,-1,-18,2,4
712,1,-1,1,2,0,-16,2,3
713,1,-1,-1,3,1,-14,2,3
714,1,-1,-3,3,1,-14,2,4
715,1,1,-5,4,1,-13,2,4
716,2,1,-7,4,1,-12,3,4
717,3,2,-9,5,1,-9,3,5
718,4,2,-10,6,1,-5,4,5
719,5,2,-9,6,2,1,5,5
720,7,1,-6,7,2,9,6,5
721,7,1,-1,7,2,18,7,5
722,7,0,4,6,2,28,7,5
723,7,0,8,6,1,36,6,5
724,7,-1,12,6,0,44,6,5
725,7,-2,16,6,0,53,5,4
726,6,-2,20,6,-1,61,4,4
727,6,-2,23,5,0,68,4,4
728,6,-1,26,4,0,75,4,3
729,6,-1,27,3,1,81,4,3
730,6,-1,26,3,1,86,5,3
731,7,-1,26,3,2,91,6,3
732,8,-2,26,4,2,97,6,3
733,8,-2,26,3,2,103,6,3
734,8,-3,26,3,2,108,4,2
735,8,-3,27,2,1,112,3,1
736,7,-4,32,2,1,117,2,0
737,7,-4,39,2,0,123,3,-1
738,7,-4,47,2,-1,129,3,-2
739,6,-4,54,3,-1,134,4,-2
740,6,-4,60,3,0,140,5,-2
741,5,-4,65,2,0,145,4,-2
742,4,-3,71,1,0,149,3,-1
743,4,-4,76,1,1,151,2,-1
744,4,-4,79,1,1,153,1,0
745,4,-5,81,1,1,156,1,1
746,4,-6,78,1,1,157,0,1
747,4,-6,73,2,1,158,-1,1
748,3,-7,68,1,1,159,-1,0
749,2,-6,64,0,1,158,-2,0
750,0,-6,60,-2,2,157,-3,-1
751,-1,-5,56,-4,2,156,-3,-1
752,-2,-5,51,-5,2,155,-2,-1
753,-3,-5,47,-6,3,153,-2,-1
754,-2,-6,46,-6,3,153,-2,-1
755,-2,-6,46,-6,3,151,-3,0
756,0,-7,47,-6,3,149,-3,0
757,1,-6,46,-6,4,147,-3,1
758,1,-5,43,-6,4,146,-3,2
759,2,-4,40,-6,4,147,-2,3
760,2,-3,36,-5,4,146,-1,4
761,2,-2,33,-4,3,145,0,4
762,2,-1,31,-3,1,144,1,4
763,2,0,28,-1,0,142,2,4
764,3,1,25,0,-1,139,2,3
765,4,1,20,1,-1,137,3,2
766,4,2,16,1,0,135,2,2
767,5,3,10,0,1,132,2,3
768,5,3,4,-2,2,129,2,2
769,6,2,0,-3,2,126,1,2
770,6,1,-2,-5,2,123,1,1
771,6,0,-1,-5,2,122,1,0
772,7,0,1,-5,1,121,1,0
773,7,0,2,-4,1,120,2,0
774,7,1,1,-4,0,118,3,0
775,7,2,1,-3,-1,115,4,1
776,6,2,1,-3,-2,114,4,1
777,6,2,2,-4,-2,113,4,0
778,5,2,5,-4,-2,112,3,0
779,5,2,7,-5,-1,112,2,1
780,4,2,8,-4,0,111,1,2
781,4,3,8,-4,1,110,0,3
782,4,3,7,-4,1,110,0,4
783,5,3,7,-4,2,110,-1,4
784,5,3,7,-4,3,112,0,5
785,6,3,6,-4,4,114,1,4
786,7,4,7,-5,4,115,2,4
787,6,4,10,-5,4,117,3,3
788,6,3,13,-5,3,117,3,2
789,5,3,15,-5,1,116,3,1
790,3,3,16,-6,-1,115,2,0
791,2,4,16,-7,-3,113,2,0
792,0,5,16,-7,-4,112,1,1
793,-1,6,14,-7,-5,110,1,1
794,-2,6,14,-7,-5,107,1,2
795,-2,6,14,-6,-6,104,1,2
796,-3,6,17,-5,-6,100,1,2
797,-3,7,20,-5,-6,96,1,2
798,-3,8,20,-4,-5,92,2,3
799,-3,9,19,-3,-4,88,3,4
800,-2,9,17,-2,-3,86,5,6
801,1,10,15,0,-2,82,7,7
802,3,10,14,2,-1,78,8,7
803,5,9,12,4,-1,72,10,7
804,7,9,8,4,-1,65,10,7
805,8,8,3,5,-1,60,11,6
806,9,8,1,6,-1,56,11,5
807,10,8,2,6,-2,56,11,5
808,10,8,3,7,-3,56,11,5
809,10,9,4,7,-4,55,11,6
810,11,8,4,7,-6,53,11,6
811,11,7,3,6,-7,50,11,5
812,11,5,3,5,-8,48,10,4
813,10,4,2,4,-9,46,10,3
814,10,2,1,3,-10,44,10,2
815,11,1,-1,3,-10,41,10,2
816,12,-1,-4,3,-10,38,11,2
817,14,-2,-7,4,-10,35,12,1
818,15,-3,-10,4,-11,32,13,0
819,14,-3,-13,4,-11,31,14,-1
820,13,-3,-16,3,-11,30,14,-2
821,11,-3,-18,3,-11,31,14,-2
822,10,-2,-21,2,-10,33,13,-2
823,10,-1,-24,2,-10,35,12,-2
824,10,-1,-26,1,-9,37,11,-1
825,11,-1,-29,0,-9,39,10,-1
826,12,-1,-33,-1,-9,41,9,-1
827,12,-1,-35,-2,-10,44,9,-1
828,11,0,-36,-2,-10,47,9,-2
829,10,1,-35,-2,-10,49,10,-2
830,9,2,-34,-2,-10,51,10,-2
831,9,2,-34,-2,-10,52,11,-2
832,9,3,-34,-3,-10,53,11,-2
833,10,3,-32,-3,-9,55,11,-1
834,11,2,-28,-3,-8,59,11,-1
835,12,1,-23,-2,-7,62,11,-1
836,13,-1,-18,-2,-7,64,12,-2
837,14,-3,-11,-1,-6,65,12,-2
838,15,-4,-6,-1,-6,64,12,-3
839,15,-5,-4,-1,-5,63,11,-3
840,15,-5,-3,-1,-4,61,11,-3
841,14,-5,-3,-1,-4,58,10,-2
842,13,-6,-3,-1,-3,56,10,-2
843,12,-7,-3,0,-4,53,9,-1
844,12,-7,-3,1,-4,51,9,-1
845,12,-7,-3,2,-5,49,10,0
846,13,-8,-4,3,-5,47,10,0
847,13,-8,-4,3,-4,46,11,0
848,14,-8,-2,3,-4,45,12,1
849,14,-7,-2,4,-3,45,12,1
850,14,-6,-1,4,-3,45,13,2
851,14,-5,-2,5,-3,45,14,2
852,14,-4,-2,5,-3,45,15,2
853,14,-3,-2,5,-3,44,16,2
854,14,-3,0,5,-3,44,17,3
855,14,-3,2,4,-4,43,17,3
856,14,-3,4,3,-4,42,16,3
857,14,-3,3,2,-4,41,14,3
858,15,-2,1,2,-3,39,13,3
859,15,-2,-1,1,-2,37,13,3
860,15,-2,-3,0,-1,35,12,2
861,15,-2,-3,-1,-1,33,12,3
862,14,-2,-1,-1,0,32,11,3
863,13,-1,2,-2,0,31,10,4
864,12,0,4,-2,1,30,9,4
865,11,1,3,-2,1,28,8,5
866,11,1,1,-1,1,24,7,4
867,12,1,-3,0,0,20,7,4
868,13,0,-5,1,-1,15,7,4
869,14,-1,-7,1,-2,11,7,4
870,16,-3,-8,1,-3,8,7,5
871,17,-3,-9,1,-4,4,7,5
872,18,-4,-10,1,-4,1,6,4
873,18,-4,-9,1,-3,-3,6,3
874,18,-5,-7,0,-3,-6,6,2
875,18,-5,-2,0,-2,-7,5,2
876,18,-6,3,0,-1,-6,4,2
877,17,-6,8,0,-1,-5,3,2
878,16,-6,13,0,0,-3,2,2
879,14,-5,19,1,1,0,2,3
880,13,-5,25,1,1,4,2,4
881,13,-4,31,1,2,8,2,4
882,13,-4,35,1,3,12,2,5
883,13,-3,37,2,3,17,2,5
884,14,-3,38,2,3,21,2,5
885,13,-3,38,2,2,23,3,6
886,13,-3,40,2,2,24,2,6
887,12,-3,43,1,1,25,2,5
888,12,-4,46,-1,0,24,2,4
889,11,-6,48,-2,-1,24,2,3
890,12,-7,47,-3,-2,23,2,3
891,12,-9,46,-3,-3,22,2,3
892,13,-10,43,-2,-5,20,2,2
893,13,-11,42,-2,-6,18,2,2
894,13,-11,41,-2,-8,16,2,0
895,13,-12,42,-1,-8,14,3,-1
896,13,-13,43,-1,-8,13,4,-2
897,14,-13,44,0,-8,13,5,-3
898,15,-14,43,1,-7,16,5,-2
899,15,-13,42,2,-7,18,5,-2
900,14,-12,39,2,-6,21,5,-1
901,13,-10,37,2,-5,22,4,-1
902,11,-8,35,2,-5,22,4,-1
903,10,-6,35,2,-4,22,4,-1
904,10,-5,37,2,-4,24,5,-1
905,11,-5,40,2,-4,27,5,-1
906,13,-6,43,3,-3,31,6,-1
907,14,-6,46,3,-2,35,6,0
908,14,-6,46,4,-1,36,6,0
909,15,-6,45,4,-1,36,6,1
910,16,-7,43,4,-2,36,6,1
911,16,-8,42,4,-2,35,6,2
912,16,-9,41,3,-2,35,6,2
913,16,-9,39,2,-2,35,6,2
914,15,-9,39,2,-2,35,7,2
915,14,-9,39,2,-3,34,7,2
916,14,-10,39,2,-3,33,7,1
917,15,-11,38,2,-3,31,8,0
918,16,-12,35,3,-3,28,8,0
919,17,-13,31,3,-3,26,8,-1
920,17,-14,28,4,-3,24,8,-1
921,17,-14,24,4,-3,22,8,-2
922,17,-13,22,4,-4,23,9,-3
923,16,-13,20,4,-4,25,9,-4
924,16,-13,19,3,-5,26,9,-5
925,16,-13,21,3,-5,28,9,-5
926,14,-14,23,2,-5,29,8,-6
927,13,-14,25,2,-4,29,7,-6
928,11,-15,28,1,-4,28,5,-7
929,9,-15,30,1,-4,29,4,-7
930,8,-15,31,0,-3,31,3,-6
931,8,-14,32,0,-3,33,3,-5
932,8,-13,31,0,-2,34,3,-5
933,9,-12,28,-1,-2,35,3,-4
934,10,-11,27,-1,-1,35,3,-3
935,10,-10,27,-2,-1,37,3,-3
936,11,-9,26,-2,-2,38,3,-2
937,11,-8,26,-2,-3,40,3,-1
938,10,-8,26,-2,-4,42,3,0
939,10,-7,26,-2,-5,44,3,0
940,11,-7,25,-2,-5,45,3,1
941,12,-7,24,-1,-4,45,4,2
942,13,-7,22,-1,-3,45,4,3
943,14,-6,22,-1,-2,45,5,4
944,15,-7,23,-1,-2,46,5,4
945,16,-7,26,0,-1,48,5,4
946,15,-8,28,1,-2,50,4,3
947,15,-9,30,2,-2,53,4,2
948,14,-9,31,3,-2,55,3,2
949,14,-10,33,4,-2,57,3,2
950,14,-10,35,5,-2,59,3,2
951,13,-10,37,5,-2,61,3,2
952,13,-9,39,5,-1,61,4,1
953,13,-9,40,4,-1,61,4,1
954,12,-8,41,3,0,63,5,0
955,11,-7,43,2,1,66,5,-1
956,10,-7,45,1,1,70,5,-2
957,9,-6,47,1,2,73,6,-2
958,8,-6,49,0,2,76,5,-3
959,8,-7,49,0,2,79,5,-3
960,9,-7,49,0,2,81,4,-3
961,10,-7,50,-1,3,83,4,-3
962,11,-7,51,-2,3,85,4,-3
963,11,-6,52,-2,2,86,4,-2
964,11,-6,52,-3,2,86,4,-1
965,11,-7,51,-4,1,84,4,-1
966,9,-7,49,-4,-1,82,3,0
967,7,-8,46,-5,-2,80,2,-1
968,6,-8,42,-5,-3,78,2,-2
969,5,-8,39,-5,-3,76,3,-2
970,4,-7,37,-4,-3,73,3,-3
971,4,-7,36,-3,-3,70,4,-2
972,5,-6,36,-1,-3,68,5,-2
973,7,-7,34,1,-3,66,6,-1
974,8,-7,30,2,-2,64,7,-1
975,9,-8,25,3,-2,62,7,-1
976,9,-8,20,4,-1,60,6,-1
977,8,-8,18,4,0,59,5,-1
978,8,-7,16,3,1,58,4,-1
979,7,-7,14,2,2,58,3,0
980,7,-6,13,0,2,59,3,1
981,7,-5,13,-1,2,60,3,1
982,7,-6,15,-1,1,61,3,0
983,6,-6,17,-2,1,61,3,-1
984,6,-6,18,-3,0,61,3,-1
985,5,-6,19,-3,0,61,2,-1
986,5,-6,18,-4,0,62,2,-1
987,5,-6,16,-3,1,61,2,-1
988,6,-6,12,-2,2,60,3,0
989,8,-5,7,-1,2,57,4,0
990,9,-4,3,-1,2,54,5,1
991,10,-4,2,-1,3,51,5,2
992,9,-4,2,-1,4,47,5,2
993,9,-3,2,-1,4,43,5,2
994,8,-3,1,0,4,39,5,3
995,7,-2,-2,1,4,34,5,3
996,7,-1,-5,2,3,31,5,3
997,7,-1,-6,2,2,27,5,2
998,7,-2,-5,1,1,26,4,2
999,7,-3,-3,0,1,24,3,2
1000,7,-4,-1,0,1,22,3,2
1001,7,-5,1,1,2,20,2,2
1002,7,-5,1,2,3,17,3,3
1003,7,-4,3,2,4,15,3,3
1004,7,-3,4,2,5,13,3,4
1005,6,-2,4,1,6,11,3,5
1006,6,0,3,1,7,11,3,6
1007,5,1,2,0,8,10,3,7
1008,5,2,2,-1,8,11,3,8
1009,5,2,3,-1,7,12,2,7
1010,5,1,3,-1,7,14,2,7
1011,5,0,4,-1,6,16,1,6
1012,6,0,6,-1,6,17,1,5
1013,7,-1,6,-1,6,17,1,5
1014,7,-1,5,-1,6,15,1,5
1015,8,-1,4,-1,6,13,2,5
1016,8,-1,4,0,6,10,3,5
1017,7,-1,4,1,6,6,4,5
1018,7,0,3,2,5,4,5,4
1019,7,2,3,3,5,3,6,4
1020,6,3,3,4,4,2,7,5
1021,7,4,3,5,4,1,8,5
1022,7,5,4,5,5,1,9,6
1023,7,6,4,5,5,1,9,6
1024,7,6,4,5,5,2,8,7
1025,7,7,4,5,6,3,7,7
1026,6,7,5,4,6,4,6,7
1027,4,8,7,4,6,7,4,7
1028,3,8,9,4,5,8,3,6
1029,2,7,11,3,5,10,2,6
1030,1,7,12,3,4,11,1,5
1031,1,6,14,2,4,13,0,5
1032,0,5,16,2,4,16,-2,5
1033,-1,4,17,2,5,17,-3,4
1034,-2,3,18,2,5,18,-4,3
1035,-2,2,18,2,5,18,-4,2
1036,-3,2,19,2,5,20,-4,2
1037,-3,3,20,3,5,21,-3,3
1038,-4,4,21,2,5,22,-3,3
1039,-4,5,22,2,5,23,-2,4
1040,-5,5,22,1,5,23,-2,3
1041,-5,4,21,-1,5,22,-2,3
1042,-5,3,21,-1,4,22,-1,2
1043,-4,2,21,-1,4,23,-1,1
1044,-4,0,22,-1,3,23,-1,0
1045,-3,-1,22,-1,2,22,-1,0
1046,-3,-2,20,-1,2,20,-2,0
1047,-2,-2,17,-1,1,18,-3,1
1048,-2,-3,12,0,1,16,-3,1
1049,-1,-3,8,0,1,16,-3,1
1050,0,-4,3,1,1,16,-3,1
1051,2,-5,-2,2,1,16,-2,0
1052,2,-6,-5,2,1,16,-2,0
1053,2,-6,-7,2,1,17,-2,1
1054,2,-5,-9,1,1,18,-2,1
1055,1,-5,-11,-1,2,20,-3,1
1056,-1,-4,-12,-2,2,21,-3,1
1057,-2,-4,-12,-4,2,22,-4,1
1058,-2,-5,-9,-5,2,23,-5,1
1059,-2,-5,-7,-5,3,24,-5,1
1060,-2,-6,-6,-5,3,26,-5,2
1061,-1,-6,-4,-4,3,28,-5,2
1062,0,-6,-2,-4,3,30,-5,3
1063,1,-6,-1,-3,3,31,-5,3
1064,1,-5,0,-3,3,32,-4,3
1065,1,-5,1,-3,2,31,-4,3
1066,1,-5,1,-3,2,30,-4,3
1067,1,-5,1,-2,2,28,-4,2
1068,0,-5,1,-2,1,27,-4,2
1069,-1,-5,-1,-3,1,26,-4,2
1070,-1,-5,-3,-4,0,27,-4,2
1071,0,-5,-7,-4,0,30,-3,1
1072,0,-5,-11,-4,-1,33,-2,0
1073,1,-5,-13,-4,-1,37,-1,-1
1074,1,-5,-14,-4,-1,40,0,-2
1075,0,-6,-14,-3,0,42,1,-3
1076,0,-6,-12,-2,1,45,1,-4
1077,0,-6,-10,-1,1,48,1,-4
1078,0,-6,-8,0,1,52,2,-4
1079,1,-5,-10,1,1,55,2,-3
1080,1,-4,-14,1,2,56,2,-3
1081,2,-3,-20,2,2,56,3,-2
1082,1,-1,-26,3,2,54,4,-1
1083,1,-1,-30,3,3,51,5,-1
1084,0,-1,-32,4,3,49,5,-1
1085,-1,-1,-29,4,3,47,4,-1
1086,-2,-2,-26,3,2,46,3,-1
1087,-2,-3,-25,3,1,45,2,-2
1088,-3,-5,-25,1,1,44,1,-3
1089,-3,-6,-24,0,0,46,1,-3
1090,-3,-6,-22,0,-1,49,2,-3
1091,-3,-6,-19,1,-1,53,3,-2
1092,-2,-4,-15,2,0,56,4,-1
1093,-2,-3,-11,3,1,58,6,-1
1094,-1,-2,-10,4,1,58,7,-1
1095,-1,-2,-9,4,1,56,7,-1
1096,-1,-3,-10,3,1,54,7,-1
1097,-3,-3,-11,2,1,52,5,-1
1098,-4,-3,-10,1,1,52,3,-1
1099,-5,-3,-8,0,2,53,1,-1
1100,-5,-3,-8,1,2,53,1,-1
1101,-4,-2,-8,2,3,53,1,-1
1102,-2,-2,-10,3,3,53,2,0
1103,0,-2,-11,5,3,53,3,2
1104,2,-2,-11,6,4,53,3,4
1105,2,-1,-13,6,5,52,2,5
1106,3,-1,-15,5,6,50,2,6
1107,3,-1,-17,5,8,49,2,6
1108,4,-1,-16,4,8,48,2,6
1109,5,-1,-15,3,8,49,2,5
1110,5,0,-14,3,8,50,3,5
1111,5,0,-15,3,8,51,3,4
1112,6,1,-15,4,8,52,3,5
1113,6,1,-15,5,7,53,4,5
1114,6,2,-14,6,6,54,4,5
1115,7,1,-14,7,5,55,5,5
1116,7,1,-13,8,4,55,5,5
1117,7,1,-12,8,3,54,5,5
1118,7,1,-12,8,3,52,5,4
1119,6,1,-12,7,3,49,4,4
1120,5,1,-12,6,3,47,3,3
1121,4,2,-13,5,4,44,2,2
1122,3,1,-12,5,4,41,1,2
1123,3,0,-12,4,4,40,1,1
1124,3,-1,-12,4,4,38,1,0
1125,2,-2,-14,5,4,38,1,-1
1126,2,-2,-18,5,4,38,1,-1
1127,1,0,-23,6,4,39,1,0
1128,0,2,-27,6,5,39,1,1
1129,-1,4,-30,7,7,40,0,1
1130,-2,6,-29,6,8,40,-1,1
1131,-4,7,-27,6,9,40,-1,1
1132,-5,7,-25,5,9,39,-2,1
1133,-6,7,-25,4,8,38,-2,1
1134,-6,7,-25,4,8,38,-2,2
1135,-6,7,-25,5,8,38,-1,3
1136,-7,7,-22,5,8,37,-1,3
1137,-7,6,-21,4,8,36,-1,3
1138,-7,5,-20,4,9,34,-1,2
1139,-8,4,-20,3,9,34,-2,2
1140,-8,4,-20,3,9,35,-3,2
1141,-8,3,-20,3,8,37,-3,3
1142,-7,3,-21,3,8,40,-3,3
1143,-7,3,-21,3,8,41,-4,4
1144,-7,3,-20,3,7,42,-3,4
1145,-6,3,-18,2,7,43,-3,4
1146,-6,3,-16,1,7,42,-3,3
1147,-6,3,-15,0,7,41,-3,3
1148,-7,3,-14,-1,7,40,-3,3
1149,-7,3,-15,-1,8,39,-4,3
1150,-6,3,-18,-2,9,38,-4,3
1151,-5,4,-21,-2,10,38,-4,4
1152,-4,4,-24,-1,11,38,-3,4
1153,-3,5,-27,-1,11,38,-2,5
1154,-2,6,-27,1,11,37,-2,5
1155,-2,6,-27,1,11,36,-3,5
1156,-1,6,-26,1,11,35,-3,5
1157,-1,6,-25,1,10,33,-4,4
1158,-1,6,-25,-1,9,32,-5,4
1159,-2,5,-25,-3,9,31,-6,3
1160,-1,4,-24,-4,8,31,-7,3
1161,-1,3,-22,-4,7,31,-6,2
1162,-1,2,-19,-4,6,31,-5,2
1163,-1,1,-18,-3,6,31,-5,1
1164,-2,1,-16,-1,5,30,-4,1
1165,-2,1,-15,0,4,29,-3,1
1166,-3,1,-15,2,4,28,-1,0
1167,-4,1,-15,2,4,26,-1,-1
1168,-4,1,-16,3,5,24,-1,-1
1169,-5,0,-16,3,5,21,-1,-2
1170,-6,-1,-16,3,5,17,-2,-3
1171,-5,-1,-18,2,5,13,-3,-3
1172,-5,-1,-20,2,5,11,-4,-3
1173,-3,1,-23,2,5,11,-3,-3
1174,-2,2,-28,2,5,11,-2,-2
1175,-2,3,-34,2,6,10,-2,-1
1176,-2,3,-38,1,7,9,-2,0
1177,-3,3,-39,1,7,8,-2,1
1178,-5,3,-40,0,8,6,-3,2
1179,-6,4,-41,0,8,4,-3,2
1180,-7,5,-43,0,8,2,-4,2
1181,-7,6,-44,0,8,1,-4,3
1182,-6,6,-44,1,7,0,-4,3
1183,-5,7,-43,2,7,-1,-4,3
1184,-4,6,-42,2,6,-1,-4,4
1185,-4,6,-42,2,6,-1,-4,4
1186,-4,6,-43,2,7,-1,-4,4
1187,-4,7,-43,2,7,-1,-4,4
1188,-4,7,-43,1,7,-3,-4,4
1189,-4,7,-42,1,7,-5,-5,3
1190,-3,7,-41,1,7,-7,-4,3
1191,-2,6,-42,1,6,-7,-4,3
1192,-1,6,-43,2,6,-6,-3,3
1193,0,6,-45,3,5,-5,-2,4
1194,2,6,-44,4,6,-4,-1,4
1195,3,7,-39,5,6,-3,0,5
1196,3,7,-32,6,6,-3,0,5
1197,2,8,-24,7,6,-2,1,6
1198,0,9,-18,7,6,0,0,6
1199,-2,9,-13,8,6,3,-1,6
1200,-3,10,-10,7,6,5,-1,6
1201,-4,10,-7,7,6,5,-2,7
1202,-4,9,-7,6,6,3,-3,6
1203,-4,7,-9,5,6,0,-4,6
1204,-5,6,-10,4,6,-3,-5,6
1205,-5,5,-9,3,5,-3,-5,6
1206,-6,4,-7,2,5,-2,-6,6
1207,-7,3,-4,1,4,0,-6,6
1208,-7,3,-2,0,3,1,-7,5
1209,-7,3,-1,-1,2,2,-7,5
1210,-8,2,-2,-1,1,3,-7,4
1211,-7,2,-4,-1,1,4,-8,3
1212,-7,2,-5,0,1,4,-8,3
1213,-7,1,-5,0,1,3,-8,2
1214,-6,1,-6,1,2,0,-8,2
1215,-6,1,-6,2,2,-3,-7,2
1216,-6,2,-6,2,2,-6,-6,2
1217,-5,2,-3,3,2,-6,-5,2
1218,-5,2,1,4,1,-5,-4,2
1219,-6,2,4,4,0,-3,-3,1
1220,-6,2,6,4,0,-2,-3,1
1221,-7,2,6,5,-1,0,-3,0
1222,-8,2,6,6,-1,2,-3,0
1223,-9,1,4,6,-1,4,-3,0
1224,-10,1,4,6,-1,6,-3,1
1225,-10,0,4,5,-1,7,-4,0
1226,-10,-1,4,4,-1,7,-4,-1
1227,-9,-3,3,2,-1,7,-4,-2
1228,-9,-4,1,1,-2,6,-3,-4
1229,-8,-6,-2,0,-2,4,-2,-5
1230,-8,-6,-5,-1,-3,2,-2,-6
1231,-8,-6,-8,-1,-3,1,-2,-6
1232,-8,-6,-9,-1,-2,-1,-2,-6
1233,-10,-5,-8,-1,-2,-3,-3,-5
1234,-11,-5,-7,-2,-2,-6,-4,-5
1235,-12,-4,-6,-2,-2,-8,-5,-4
1236,-13,-4,-6,-3,-3,-11,-6,-3
1237,-13,-3,-6,-3,-3,-14,-7,-3
1238,-13,-2,-8,-3,-4,-16,-7,-2
1239,-13,-1,-10,-3,-4,-16,-6,-1
1240,-13,1,-11,-2,-4,-15,-5,0
1241,-12,3,-9,-1,-4,-13,-5,1
1242,-12,4,-7,-1,-4,-11,-4,2
1243,-12,4,-5,0,-4,-11,-3,2
1244,-12,3,-3,0,-3,-12,-3,2
1245,-12,2,-1,1,-3,-13,-2,2
1246,-12,1,2,0,-2,-13,-2,2
1247,-13,0,4,-1,-2,-13,-3,1
1248,-13,-1,6,-1,-2,-12,-5,1
1249,-14,-2,5,-3,-2,-13,-6,1
1250,-13,-3,3,-4,-2,-14,-8,0
1251,-13,-4,2,-5,-2,-15,-8,-1
1252,-12,-4,2,-5,-2,-14,-8,-2
1253,-12,-3,1,-4,-2,-14,-7,-2
1254,-11,-3,1,-3,-1,-16,-6,-2
1255,-11,-2,2,-2,-1,-19,-5,-2
1256,-10,-1,4,0,0,-24,-3,-2
1257,-9,0,6,2,1,-27,-1,-1
1258,-9,2,9,3,2,-30,0,-1
1259,-9,3,9,3,2,-30,1,-1
1260,-9,4,8,4,2,-30,1,0
1261,-10,6,4,4,2,-30,1,1
1262,-10,7,0,5,2,-30,0,2
1263,-9,8,-3,6,2,-30,0,3
1264,-8,8,-5,7,2,-29,1,4
1265,-7,8,-9,8,3,-28,2,4
1266,-7,7,-15,8,4,-27,3,4
1267,-6,6,-19,8,5,-26,4,3
1268,-6,5,-22,8,6,-25,4,3
1269,-7,4,-23,8,6,-23,4,2
1270,-7,3,-22,6,6,-22,3,1
1271,-8,2,-22,5,5,-21,2,0
1272,-9,1,-21,5,5,-22,1,0
1273,-10,1,-19,5,4,-21,0,-1
1274,-11,0,-14,6,4,-21,-1,-2
1275,-11,0,-8,7,5,-20,-1,-2
1276,-11,0,-2,8,5,-19,-1,-2
1277,-11,0,3,8,5,-19,-1,-2
1278,-11,0,6,8,6,-20,-1,-1
1279,-9,0,6,7,6,-20,0,-1
1280,-8,0,4,7,6,-21,0,-1
1281,-8,0,0,6,6,-21,1,-1
1282,-8,1,-3,5,5,-20,0,-1
1283,-9,1,-5,4,5,-19,-1,-2
1284,-11,2,-5,2,4,-18,-3,-2
1285,-13,3,-2,1,3,-18,-5,-2
1286,-13,4,0,1,2,-19,-6,-1
1287,-13,6,1,1,2,-21,-7,0
1288,-13,7,1,1,2,-22,-8,1
1289,-14,8,1,1,2,-24,-8,1
1290,-14,8,2,1,3,-25,-9,1
1291,-16,8,3,1,3,-25,-10,1
1292,-17,8,5,2,3,-24,-11,1
1293,-18,8,7,2,4,-23,-12,1
1294,-19,8,8,2,5,-22,-13,1
1295,-20,9,11,2,6,-22,-14,2
1296,-20,9,13,2,6,-22,-14,3
1297,-20,9,16,2,7,-21,-15,4
1298,-19,8,18,1,7,-20,-15,5
1299,-18,7,20,0,7,-18,-15,5
1300,-17,6,20,-1,6,-16,-15,4
1301,-16,4,20,-2,5,-14,-16,2
1302,-15,3,20,-3,3,-13,-16,0
1303,-15,2,21,-4,1,-12,-16,-1
1304,-15,1,21,-5,0,-12,-16,-2
1305,-16,0,19,-6,-1,-11,-17,-3
1306,-17,0,17,-6,0,-9,-17,-2
1307,-17,1,15,-7,1,-8,-18,-2
1308,-19,1,14,-8,1,-7,-19,-2
1309,-20,2,15,-9,1,-7,-20,-2
1310,-22,2,17,-9,1,-7,-20,-3
1311,-23,3,20,-10,1,-7,-21,-4
1312,-23,4,21,-10,1,-6,-21,-5
1313,-23,5,22,-11,1,-6,-20,-5
1314,-22,4,21,-10,0,-5,-19,-5
1315,-20,4,21,-10,-1,-5,-17,-5
1316,-19,3,21,-10,-1,-3,-16,-4
1317,-18,1,21,-9,0,-1,-16,-2
1318,-16,1,19,-9,1,1,-16,-1
1319,-15,0,17,-9,1,2,-16,0
1320,-14,1,16,-8,2,2,-16,0
1321,-14,2,14,-8,2,2,-16,0
1322,-15,3,14,-7,3,2,-16,0
1323,-16,4,15,-6,3,2,-15,-1
1324,-17,4,18,-6,4,3,-15,-1
1325,-16,3,19,-5,3,3,-15,-1
1326,-16,2,20,-3,3,2,-14,-2
1327,-15,1,19,-2,2,1,-14,-3
1328,-13,0,17,0,1,1,-14,-3
1329,-12,0,16,1,-1,2,-13,-3
1330,-11,1,14,2,-2,4,-13,-3
1331,-10,2,13,3,-2,6,-13,-2
1332,-10,2,13,2,-2,9,-13,-2
1333,-10,3,15,0,-2,12,-14,-2
1334,-10,2,18,-2,-1,16,-15,-2
1335,-11,1,21,-4,0,18,-16,-3
1336,-11,0,23,-6,0,20,-16,-4
1337,-11,-2,24,-8,1,20,-16,-5
1338,-11,-3,23,-10,1,20,-17,-6
1339,-11,-4,22,-10,1,20,-17,-6
1340,-10,-4,19,-11,1,20,-17,-6
1341,-10,-3,16,-11,1,20,-16,-5
1342,-9,-2,12,-11,2,19,-15,-5
1343,-9,-1,7,-10,2,16,-13,-5
1344,-10,1,3,-10,2,14,-12,-5
1345,-10,3,0,-10,3,13,-11,-5
1346,-11,3,0,-10,4,13,-10,-5
1347,-9,3,1,-9,4,13,-9,-6
1348,-7,2,2,-7,5,11,-8,-6
1349,-5,0,2,-5,5,9,-6,-6
1350,-2,-1,2,-4,6,7,-5,-5
1351,-1,0,1,-2,6,5,-4,-4
1352,0,1,-1,1,7,5,-3,-2
1353,0,2,-3,3,7,5,-3,0
1354,0,3,-3,6,7,4,-2,1
1355,1,3,-3,8,8,3,-2,2
1356,1,3,-2,10,8,1,-2,2
1357,1,2,-3,12,8,0,-2,2
1358,0,2,-3,13,7,-1,-2,2
1359,-1,1,-3,12,6,-1,-3,1
1360,-3,1,-3,10,4,1,-5,0
1361,-4,0,-2,7,3,5,-7,-1
1362,-6,0,-1,3,2,9,-10,-1
1363,-7,1,-1,0,1,13,-12,-2
1364,-8,2,-2,-2,0,16,-13,-2
1365,-9,3,-4,-4,-1,18,-14,-1
1366,-10,4,-6,-5,-1,19,-14,-1
1367,-11,5,-7,-6,-1,17,-14,-1
1368,-11,5,-9,-6,-1,13,-14,-1
1369,-9,5,-10,-5,0,11,-14,-1
1370,-7,4,-12,-3,0,9,-13,0
1371,-5,4,-13,0,0,9,-11,1
1372,-2,5,-14,3,0,9,-8,2
1373,0,6,-16,5,0,9,-6,3
1374,2,7,-16,7,0,9,-5,4
1375,3,7,-16,8,1,7,-4,4
1376,3,7,-16,9,2,5,-3,5
1377,4,7,-15,10,4,3,-1,5
1378,5,7,-14,12,6,2,1,6
1379,5,8,-12,15,8,3,3,7
1380,4,7,-10,17,10,3,4,8
1381,3,7,-10,18,11,1,4,8
1382,1,6,-10,18,11,-2,4,8
1383,-2,5,-9,18,10,-4,2,7
1384,-6,3,-7,16,9,-5,-1,6
1385,-9,2,-3,13,8,-5,-3,4
1386,-12,-1,1,8,5,-3,-6,2
1387,-14,-3,2,3,3,-1,-9,-1
1388,-16,-4,1,-3,1,1,-13,-2
1389,-18,-5,0,-9,-1,3,-17,-3
1390,-20,-4,0,-14,-2,6,-20,-2
1391,-21,-3,1,-18,-2,8,-22,-2
1392,-21,-2,0,-20,-2,10,-24,-1
1393,-21,-1,-2,-21,-2,10,-24,-1
1394,-19,-1,-5,-21,-1,10,-24,-2
1395,-18,-1,-8,-20,-1,12,-23,-2
1396,-17,0,-9,-20,-2,15,-22,-3
1397,-16,1,-9,-18,-3,18,-21,-3
1398,-15,3,-11,-17,-3,20,-20,-3
1399,-14,4,-14,-14,-3,21,-19,-2
1400,-12,6,-17,-12,-2,21,-16,-2
1401,-10,7,-18,-8,0,20,-12,-1
1402,-8,8,-17,-5,2,18,-8,0
1403,-5,10,-17,-1,3,16,-5,2
1404,-2,11,-17,4,5,14,-1,3
1405,1,12,-18,8,7,14,1,5
1406,3,13,-18,12,7,14,3,7
1407,5,13,-17,15,7,16,4,8
1408,6,12,-17,16,6,17,4,9
1409,6,11,-17,16,5,17,4,9
1410,5,8,-17,14,4,17,2,8
1411,2,6,-16,11,3,17,0,7
1412,-1,2,-14,8,2,18,-3,4
1413,-4,-1,-11,4,1,19,-6,2
1414,-6,-4,-10,0,0,19,-8,-1
1415,-7,-6,-9,-3,-1,18,-9,-3
1416,-8,-8,-10,-6,-1,18,-10,-6
1417,-8,-8,-11,-8,-2,17,-10,-7
1418,-7,-8,-13,-9,-3,17,-10,-8
1419,-7,-8,-16,-10,-4,16,-9,-8
1420,-7,-6,-19,-9,-5,15,-8,-8
1421,-6,-4,-21,-8,-5,14,-7,-6
1422,-6,-1,-24,-7,-4,12,-5,-4
1423,-5,3,-26,-5,-3,11,-4,-1
1424,-4,6,-28,-3,-3,10,-3,2
1425,-3,8,-30,-1,-2,9,-2,3
1426,-2,9,-31,1,-1,8,0,5
1427,0,11,-32,3,0,7,2,6
1428,3,12,-33,5,1,5,4,7
1429,5,13,-33,8,2,4,5,8
1430,7,15,-34,9,4,2,7,10
1431,8,16,-32,11,5,2,8,11
1432,7,17,-29,11,7,1,8,12
1433,6,17,-25,11,8,0,7,13
1434,5,15,-22,10,8,-1,5,13
1435,3,13,-20,9,8,-4,4,12
1436,2,9,-19,8,7,-6,2,11
1437,0,6,-19,6,6,-7,0,9
1438,-2,4,-19,4,4,-8,-2,6
1439,-5,2,-20,1,1,-8,-4,4
1440,-7,1,-20,-2,-2,-7,-6,2
1441,-10,0,-21,-4,-5,-7,-8,0
1442,-12,-2,-20,-5,-7,-7,-9,-1
1443,-12,-4,-20,-6,-8,-8,-10,-2
1444,-13,-5,-19,-6,-9,-8,-11,-2
1445,-12,-6,-18,-7,-9,-9,-11,-3
1446,-12,-6,-18,-7,-9,-9,-11,-4
1447,-11,-6,-18,-6,-10,-9,-10,-5
1448,-10,-6,-18,-6,-10,-8,-9,-6
1449,-8,-5,-17,-5,-11,-6,-7,-6
1450,-6,-4,-16,-4,-11,-5,-6,-6
1451,-5,-3,-15,-4,-10,-3,-6,-6
1452,-5,-1,-14,-3,-9,-2,-6,-5
1453,-5,2,-15,-3,-8,-1,-6,-3
1454,-5,4,-18,-2,-6,-1,-6,-1
1455,-5,6,-20,-2,-5,-2,-6,1
1456,-4,8,-22,0,-3,-3,-5,3
1457,-2,9,-20,2,-2,-2,-4,5
1458,-1,10,-16,3,-1,1,-4,5
1459,-1,9,-9,4,0,3,-3,5
1460,-1,7,-4,5,0,4,-3,4
1461,-1,4,0,6,0,3,-3,3
1462,-2,1,1,6,0,1,-3,2
1463,-4,-3,1,5,-1,-2,-3,0
1464,-5,-8,2,4,-2,-5,-2,-1
1465,-6,-12,4,3,-2,-7,-1,-2
1466,-6,-16,7,1,-3,-9,1,-3
1467,-6,-19,9,0,-4,-11,2,-5
1468,-6,-20,8,0,-6,-14,3,-6
1469,-6,-19,4,0,-7,-16,4,-7
1470,-5,-17,-2,0,-8,-17,4,-8
1471,-6,-15,-7,-1,-9,-18,4,-7
1472,-6,-14,-9,-2,-9,-19,3,-7
1473,-7,-13,-9,-3,-9,-21,2,-7
1474,-7,-13,-10,-4,-9,-23,1,-7
1475,-7,-13,-10,-4,-8,-23,1,-8
1476,-6,-12,-9,-5,-8,-23,1,-8
1477,-5,-11,-9,-4,-7,-21,1,-7
1478,-3,-8,-8,-3,-5,-19,2,-6
1479,-2,-5,-7,-2,-4,-16,3,-4
1480,0,-1,-7,1,-3,-13,3,-1
1481,1,2,-9,3,-2,-11,3,1
1482,1,6,-12,4,0,-11,3,4
1483,0,8,-14,5,1,-12,3,6
1484,0,9,-14,5,2,-13,2,7
1485,-1,9,-12,6,3,-14,2,8
1486,-1,8,-10,7,3,-16,3,9
1487,-1,7,-8,7,4,-17,3,9
1488,0,4,-5,8,3,-17,4,9
1489,-1,2,-3,7,2,-16,3,8
1490,-1,-1,-1,5,1,-14,2,5
1491,-3,-4,1,3,-1,-14,1,2
1492,-4,-6,3,0,-2,-13,0,-1
1493,-6,-9,6,-3,-3,-13,-2,-4
1494,-8,-11,9,-6,-3,-12,-3,-7
1495,-10,-12,12,-8,-4,-11,-4,-9
1496,-11,-14,14,-10,-5,-10,-5,-11
1497,-13,-14,16,-13,-6,-9,-6,-12
1498,-13,-15,16,-14,-7,-8,-7,-12
1499,-13,-14,16,-16,-8,-8,-8,-11
1500,-12,-14,15,-16,-8,-8,-8,-11
1501,-11,-13,15,-16,-8,-8,-7,-10
1502,-9,-11,14,-14,-7,-7,-7,-10
1503,-8,-8,12,-12,-6,-6,-5,-9
1504,-6,-4,10,-10,-5,-5,-4,-8
1505,-4,0,8,-8,-3,-5,-2,-6
1506,-3,5,7,-5,0,-5,0,-3
1507,-1,8,5,-2,2,-5,2,0
1508,0,12,3,1,5,-7,5,3
1509,2,14,1,3,7,-8,7,5
1510,3,14,-1,4,8,-10,9,7
1511,4,14,-4,5,8,-12,10,8
1512,5,13,-6,5,8,-13,11,7
1513,6,11,-6,4,7,-14,11,6
1514,6,9,-6,3,6,-14,10,5
1515,6,6,-6,2,5,-13,9,4
1516,6,4,-6,1,4,-14,7,3
1517,5,2,-6,0,2,-15,4,1
1518,4,-1,-7,-2,-1,-16,2,-1
1519,3,-3,-8,-4,-3,-16,1,-3
1520,2,-5,-10,-6,-4,-16,-1,-4
1521,1,-6,-11,-8,-5,-16,-2,-5
1522,1,-7,-11,-9,-5,-15,-3,-6
1523,1,-9,-10,-10,-5,-15,-3,-7
1524,1,-10,-8,-11,-4,-17,-3,-7
1525,2,-11,-8,-11,-4,-19,-4,-8
1526,2,-10,-8,-11,-3,-19,-4,-8
1527,1,-8,-10,-11,-2,-18,-4,-7
1528,1,-5,-12,-10,-1,-17,-3,-7
1529,1,-2,-15,-9,1,-17,-2,-5
1530,2,1,-19,-7,2,-19,-1,-4
1531,3,2,-23,-4,3,-22,1,-2
1532,4,3,-26,-2,4,-26,3,0
1533,5,4,-28,1,5,-28,5,2
1534,6,5,-30,3,6,-28,7,3
1535,8,7,-33,4,7,-27,8,5
1536,8,8,-36,6,9,-26,9,6
1537,9,8,-36,6,10,-24,10,6
1538,8,8,-33,7,10,-22,9,6
1539,6,8,-29,6,10,-21,7,6
1540,4,7,-25,4,9,-20,4,5
1541,1,5,-22,2,7,-19,1,4
1542,-1,2,-19,-1,5,-17,-2,2
1543,-2,-1,-17,-4,3,-16,-5,1
1544,-2,-5,-14,-6,2,-14,-7,1
1545,-1,-8,-11,-8,0,-13,-8,-1
1546,0,-11,-8,-10,-1,-13,-8,-2
1547,0,-13,-7,-10,-3,-13,-8,-4
1548,0,-14,-8,-11,-4,-12,-8,-5
1549,0,-14,-10,-11,-5,-13,-7,-6
1550,-1,-14,-12,-10,-5,-14,-6,-6
1551,-1,-13,-14,-10,-5,-14,-5,-6
1552,-2,-11,-15,-10,-5,-15,-4,-6
1553,-2,-9,-16,-8,-4,-14,-3,-6
1554,-3,-6,-16,-7,-4,-12,-1,-5
1555,-4,-3,-15,-5,-3,-10,0,-4
1556,-4,-1,-14,-3,-3,-8,0,-2
1557,-4,1,-12,-2,-3,-8,0,-1
1558,-3,3,-11,0,-2,-8,0,1
1559,-2,4,-11,2,-1,-7,0,2
1560,-1,6,-11,3,0,-6,1,3
1561,0,7,-10,4,1,-5,2,4
1562,1,9,-10,6,3,-5,3,6
1563,1,9,-9,7,4,-5,4,7
1564,1,9,-7,7,5,-6,4,7
1565,0,7,-4,7,5,-8,3,7
1566,-2,5,-2,6,4,-10,2,6
1567,-2,3,-1,6,3,-11,2,5
1568,-3,1,-1,5,2,-12,1,4
1569,-3,-1,-1,3,0,-12,0,2
1570,-3,-3,-1,2,-3,-13,-1,0
1571,-3,-5,0,-1,-5,-12,-2,-2
1572,-3,-7,4,-4,-8,-11,-3,-4
1573,-4,-9,7,-7,-10,-12,-5,-6
1574,-4,-11,9,-9,-10,-13,-5,-7
1575,-4,-12,9,-10,-10,-16,-5,-8
1576,-5,-12,8,-10,-10,-17,-4,-8
1577,-5,-12,5,-10,-10,-17,-4,-8
1578,-6,-11,2,-9,-9,-18,-3,-7
1579,-6,-9,0,-7,-9,-18,-2,-7
1580,-6,-6,-2,-5,-8,-18,0,-6
1581,-5,-4,-5,-3,-7,-19,2,-5
1582,-4,-1,-7,-1,-5,-20,4,-4
1583,-3,2,-8,1,-4,-20,5,-2
1584,-1,4,-8,3,-3,-20,6,-1
1585,0,6,-6,4,-2,-20,6,1
1586,1,6,-6,5,0,-20,5,3
1587,2,7,-6,6,1,-20,4,4
1588,2,7,-5,7,1,-18,4,5
1589,2,6,-2,7,2,-16,4,5
1590,2,6,1,7,2,-13,4,5
1591,2,5,4,6,1,-10,4,5
1592,2,3,5,5,1,-9,3,5
1593,2,1,6,3,0,-9,2,5
1594,2,-1,7,1,-1,-9,1,5
1595,2,-3,8,-1,-2,-9,-1,5
1596,2,-4,7,-2,-3,-11,-2,4
1597,2,-5,4,-3,-3,-15,-2,3
1598,2,-6,0,-4,-3,-18,-2,3
1599,2,-7,-3,-5,-3,-21,-2,1
1600,2,-7,-4,-5,-3,-22,-1,0
1601,3,-8,-7,-5,-3,-23,1,-1
1602,4,-7,-10,-5,-3,-25,2,-2
1603,5,-7,-13,-4,-2,-27,3,-2
1604,4,-7,-13,-3,-2,-29,4,-1
1605,4,-6,-12,-2,-1,-30,5,-1
1606,3,-5,-10,-1,0,-29,6,0
1607,3,-4,-10,1,1,-27,6,1
1608,3,-2,-11,3,1,-25,7,1
1609,3,-1,-11,6,2,-23,8,1
1610,3,1,-11,7,3,-22,8,2
1611,4,2,-8,8,3,-22,8,2
1612,4,3,-5,8,4,-23,8,2
1613,5,3,-1,7,5,-22,7,3
1614,4,3,3,6,5,-20,6,3
1615,4,2,6,5,5,-17,4,4
1616,3,1,9,4,5,-14,2,4
1617,3,-1,12,3,5,-13,2,4
1618,2,-2,13,2,4,-14,1,3
1619,3,-3,13,2,3,-18,1,2
1620,4,-4,12,2,3,-21,1,1
1621,4,-5,11,2,2,-24,0,1
1622,4,-6,9,1,1,-27,-2,0
1623,3,-7,8,1,0,-30,-4,-1
1624,1,-8,6,1,-1,-32,-5,-2
1625,-1,-7,5,1,-2,-33,-6,-4
1626,-3,-7,5,1,-3,-32,-6,-5
1627,-4,-6,5,1,-4,-30,-6,-7
1628,-4,-6,4,1,-5,-28,-5,-8
1629,-4,-6,5,1,-5,-25,-4,-9
1630,-3,-5,6,0,-6,-24,-3,-9
1631,-2,-4,8,1,-6,-23,-3,-9
1632,-2,-3,10,1,-5,-23,-2,-8
1633,-1,-1,12,2,-4,-24,-2,-6
1634,-1,1,11,3,-2,-26,-2,-4
1635,0,2,9,4,-1,-30,-2,-3
1636,2,2,5,6,1,-34,-1,-1
1637,3,3,-1,7,2,-38,0,0
1638,4,3,-6,8,2,-42,1,1
1639,5,2,-8,9,1,-44,2,1
1640,6,1,-6,10,1,-45,2,2
1641,6,1,-1,9,0,-43,2,2
1642,6,1,6,8,-1,-40,2,3
1643,6,1,11,7,-1,-37,2,3
1644,6,1,12,5,-2,-33,1,3
1645,6,0,12,4,-2,-30,1,3
1646,6,0,12,3,-2,-28,0,3
1647,5,-1,12,1,-2,-26,0,3
1648,4,-1,12,0,-2,-24,-1,4
1649,2,-1,13,-1,-2,-24,-2,3
1650,1,-1,12,0,-2,-24,-2,2
1651,0,-1,10,1,-3,-24,-3,1
1652,-1,-2,9,1,-4,-24,-3,0
1653,-1,-3,9,2,-4,-23,-3,-1
1654,-1,-3,9,2,-3,-23,-3,-1
1655,0,-4,8,2,-2,-24,-2,-1
1656,1,-4,8,2,-1,-24,-2,-1
1657,2,-4,9,3,0,-24,-2,-1
1658,2,-5,12,3,0,-22,-1,-1
1659,3,-5,16,4,1,-21,-1,0
1660,3,-5,20,5,1,-19,-1,1
1661,3,-5,22,6,2,-17,-2,2
1662,4,-3,23,7,3,-15,-2,3
1663,5,-2,22,7,4,-14,-2,5
1664,5,0,21,8,6,-13,-2,6
1665,6,1,20,8,7,-11,-2,7
1666,6,1,21,8,7,-9,-1,8
1667,6,1,22,7,6,-6,-1,8
1668,5,1,22,6,5,-3,-1,7
1669,4,1,21,5,4,0,-2,6
1670,3,2,19,4,3,2,-3,5
1671,2,2,17,3,2,3,-4,4
1672,1,2,14,3,2,3,-3,2
1673,1,2,11,4,1,2,-2,0
1674,2,2,9,5,-1,-1,-1,-1
1675,2,0,9,6,-3,-3,-1,-2
1676,2,-2,12,6,-6,-4,-2,-3
1677,3,-3,15,7,-7,-3,-2,-4
1678,3,-5,18,8,-8,-2,-3,-4
1679,4,-5,18,9,-8,-2,-2,-5
1680,5,-6,17,10,-7,-2,-1,-5
1681,6,-5,17,11,-6,-3,1,-6
1682,7,-5,19,11,-5,-3,2,-6
1683,7,-3,22,12,-4,-2,4,-6
1684,7,-1,24,13,-2,0,5,-5
1685,7,1,25,14,-1,4,6,-4
1686,8,3,26,14,0,8,6,-3
1687,8,5,29,15,2,11,6,-2
1688,9,5,31,15,3,13,5,0
1689,9,5,32,14,3,15,3,1
1690,9,4,32,13,4,16,2,1
1691,9,2,31,11,4,16,0,1
1692,9,0,30,10,3,17,-1,0
1693,9,-2,28,8,3,19,-2,-1
1694,9,-3,28,7,2,21,-3,-3
1695,8,-4,28,6,2,24,-3,-4
1696,6,-5,28,5,0,26,-4,-5
1697,4,-6,27,3,-1,28,-5,-7
1698,1,-6,28,2,-2,30,-6,-7
1699,0,-7,29,1,-4,30,-7,-8
1700,-1,-7,30,-1,-5,30,-7,-8
1701,-1,-7,30,-2,-5,28,-6,-8
1702,0,-7,29,-3,-6,27,-6,-8
1703,1,-6,27,-4,-6,27,-4,-8
1704,1,-4,25,-4,-4,27,-3,-7
1705,0,-2,21,-4,-3,26,-1,-6
1706,0,0,17,-3,-1,26,0,-5
1707,1,3,14,-2,2,25,1,-3
1708,2,5,13,1,3,24,2,-1
1709,2,7,13,3,4,24,3,1
1710,2,8,13,5,5,24,3,2
1711,2,9,13,7,5,24,1,4
1712,3,8,13,7,5,24,0,5
1713,3,7,14,7,5,23,-2,6
1714,4,5,15,7,5,24,-3,6
1715,5,4,15,6,6,24,-3,7
1716,5,4,14,5,6,23,-3,7
1717,5,3,14,4,7,21,-2,7
1718,3,3,14,3,7,19,-2,6
1719,2,3,13,2,8,17,-1,6
1720,1,2,14,1,8,17,-1,5
1721,1,1,15,-1,8,18,0,4
1722,0,0,18,-3,7,19,1,3
1723,0,-2,21,-4,5,18,0,1
1724,-1,-3,22,-5,3,16,0,-2
1725,-1,-5,20,-5,1,14,0,-3
1726,-1,-7,17,-5,-1,11,-1,-4
1727,0,-9,13,-5,-3,9,-1,-5
1728,1,-10,11,-5,-3,7,-1,-6
1729,2,-10,10,-5,-3,6,-1,-5
1730,3,-10,8,-5,-2,6,0,-5
1731,4,-9,4,-4,-2,6,0,-4
1732,6,-8,-1,-3,-1,7,1,-3
1733,8,-6,-4,-1,0,9,2,-2
1734,9,-4,-7,1,1,10,3,0
1735,11,-1,-7,2,2,10,3,1
1736,11,2,-8,4,2,9,4,3
1737,12,3,-10,5,3,8,5,5
1738,12,5,-11,7,3,8,6,6
1739,11,5,-12,8,3,7,7,7
1740,11,6,-11,8,3,6,8,7
1741,10,6,-10,9,3,6,8,7
1742,9,5,-9,9,4,5,9,7
1743,8,5,-9,9,4,5,9,7
1744,7,4,-8,8,4,5,10,6
1745,5,2,-7,6,3,4,11,4
1746,4,-1,-5,3,2,4,10,2
1747,2,-3,-3,0,0,3,9,-1
1748,-1,-6,-2,-3,-2,1,6,-3
1749,-3,-8,-3,-6,-3,-1,4,-6
1750,-4,-10,-5,-7,-4,-3,1,-7
1751,-5,-10,-9,-8,-4,-5,-1,-7
1752,-5,-9,-14,-9,-4,-6,-2,-6
1753,-4,-8,-18,-9,-3,-7,-2,-5
1754,-3,-6,-21,-8,-2,-7,-2,-4
1755,-2,-3,-24,-7,-1,-7,0,-3
1756,-1,-1,-27,-5,0,-7,2,-2
1757,1,2,-28,-4,1,-8,4,0
1758,2,5,-27,-2,3,-8,6,1
1759,2,8,-25,-1,4,-8,8,3
1760,2,10,-24,-1,6,-8,9,4
1761,2,11,-24,0,8,-9,9,6
1762,2,11,-25,2,9,-11,9,7
1763,2,12,-28,3,10,-13,10,8
1764,3,13,-32,4,11,-13,10,9
1765,3,13,-35,5,11,-13,10,10
1766,3,14,-37,5,11,-14,10,10
1767,3,14,-39,4,10,-17,9,10
1768,2,14,-40,3,9,-18,8,10
1769,0,13,-40,1,8,-17,6,9
1770,-2,12,-40,-1,6,-14,4,8
1771,-5,9,-40,-3,3,-11,1,6
1772,-6,6,-40,-6,1,-9,-2,3
1773,-7,2,-39,-8,-1,-7,-4,1
1774,-6,-2,-36,-9,-2,-7,-5,-1
1775,-5,-5,-32,-9,-3,-7,-6,-3
1776,-4,-7,-28,-9,-4,-7,-6,-4
1777,-3,-8,-26,-9,-5,-6,-5,-4
1778,-3,-7,-26,-8,-4,-6,-5,-3
1779,-4,-5,-26,-9,-3,-6,-4,-2
1780,-4,-3,-25,-9,-2,-7,-3,-1
1781,-4,-1,-23,-8,-2,-7,-2,0
1782,-4,2,-23,-7,-1,-7,0,1
1783,-3,3,-26,-6,-1,-9,1,1
1784,-2,4,-30,-4,-1,-12,2,2
1785,0,4,-32,-2,0,-14,3,2
1786,1,5,-34,-1,1,-15,3,3
1787,2,5,-35,1,2,-15,4,3
1788,3,5,-36,2,3,-15,5,3
1789,4,5,-37,2,4,-16,5,3
1790,4,4,-37,2,3,-16,5,2
1791,4,3,-36,1,2,-15,5,2
1792,4,2,-34,1,1,-13,4,1
1793,3,0,-31,0,0,-11,3,0
1794,2,-2,-27,0,-1,-10,2,-1
1795,0,-2,-21,0,-1,-9,1,-1
1796,-1,-2,-14,0,-1,-8,0,-2
1797,-2,-2,-8,0,-1,-8,-1,-2
1798,-2,-3,-4,-1,-1,-8,-1,-2
1799,-2,-3,-4,-2,-2,-9,-2,-2
1800,-1,-4,-6,-2,-1,-11,-3,-2
1801,0,-6,-8,-3,-1,-13,-3,-2
1802,1,-7,-9,-3,-1,-16,-3,-3
1803,1,-7,-10,-3,0,-17,-4,-4
1804,1,-8,-10,-3,0,-18,-4,-4
1805,0,-8,-11,-4,0,-17,-4,-4
1806,0,-7,-12,-4,1,-16,-4,-4
1807,0,-5,-13,-3,1,-14,-3,-3
1808,1,-2,-12,-2,2,-13,-2,-1
1809,1,2,-10,0,3,-10,-1,1
1810,2,5,-6,2,4,-5,1,2
1811,2,7,-2,3,5,-1,0,4
1812,2,8,1,4,5,1,-1,4
1813,1,8,2,4,4,2,-2,4
1814,1,6,3,3,3,1,-4,4
1815,1,4,5,3,2,0,-5,3
1816,2,1,8,3,1,0,-6,2
1817,2,-1,11,3,0,1,-6,1
1818,3,-2,13,2,-1,4,-7,1
1819,3,-3,16,2,-1,6,-8,0
1820,2,-4,17,1,-1,8,-8,-1
1821,1,-5,18,1,-1,7,-8,-1
1822,-1,-6,19,1,-1,6,-9,-2
1823,-3,-7,22,1,-1,4,-9,-3
1824,-3,-8,25,0,-2,3,-10,-3
1825,-4,-8,28,0,-2,3,-11,-3
1826,-4,-7,29,0,-2,3,-11,-2
1827,-4,-6,27,1,-2,2,-11,-2
1828,-4,-5,24,1,-1,-1,-10,-1
1829,-4,-5,22,1,-1,-3,-10,-1
1830,-4,-5,21,1,0,-5,-9,-1
1831,-4,-4,21,2,1,-5,-8,0
1832,-4,-2,20,3,1,-5,-7,1
1833,-4,1,18,3,2,-5,-7,2
1834,-5,4,15,3,2,-5,-6,3
1835,-7,7,13,3,3,-6,-6,4
1836,-7,8,11,3,4,-7,-5,5
1837,-6,9,9,4,4,-8,-4,6
1838,-4,9,5,4,3,-10,-3,6
1839,-3,8,-1,4,2,-14,-2,5
1840,-2,7,-8,3,1,-17,-2,5
1841,-2,6,-13,2,0,-19,-2,4
1842,-2,5,-17,1,-2,-22,-2,3
1843,-3,5,-22,-1,-3,-25,-2,2
1844,-3,3,-27,-2,-4,-29,-2,1
1845,-4,1,-32,-2,-6,-34,-1,-1
1846,-4,0,-35,-2,-8,-39,-1,-1
1847,-4,-1,-37,-2,-9,-43,-2,-2
1848,-4,-2,-38,-2,-9,-46,-2,-2
1849,-4,-2,-38,-2,-9,-47,-1,-3
1850,-4,-2,-37,-2,-8,-48,-1,-3
1851,-3,-2,-33,-2,-7,-48,-1,-4
1852,-3,-1,-28,-1,-6,-48,-1,-4
1853,-2,-1,-23,-1,-4,-48,-2,-3
1854,-1,-1,-18,0,-3,-48,-2,-3
1855,-1,-1,-16,1,-1,-49,-2,-2
1856,1,-1,-15,2,-1,-50,-1,-2
1857,1,-1,-16,3,0,-49,1,-2
1858,2,-1,-18,4,1,-47,1,-2
1859,2,0,-20,5,2,-46,2,-1
1860,3,1,-23,5,3,-43,2,0
1861,3,3,-24,6,4,-41,3,1
1862,4,4,-24,6,5,-40,4,2
1863,4,5,-21,6,5,-39,5,3
1864,5,5,-17,6,5,-37,5,3
1865,6,5,-14,5,4,-35,5,3
1866,7,5,-12,4,3,-32,5,3
1867,8,5,-10,3,2,-28,5,2
1868,8,5,-7,2,1,-24,5,1
1869,7,4,-4,1,1,-21,4,-1
1870,6,4,-2,0,1,-21,4,-2
1871,5,2,2,-1,1,-22,3,-3
1872,4,1,6,-2,0,-23,2,-4
1873,3,-1,12,-3,0,-21,1,-5
1874,1,-2,16,-3,0,-18,1,-5
1875,0,-3,19,-4,1,-14,-1,-4
1876,-1,-3,21,-4,2,-10,-2,-3
1877,-2,-3,22,-5,3,-7,-5,-2
1878,-3,-4,24,-6,3,-6,-8,-1
1879,-4,-5,26,-7,3,-5,-10,-1
1880,-4,-5,29,-7,2,-5,-11,-2
1881,-4,-6,30,-6,1,-5,-11,-2
1882,-3,-6,30,-4,1,-4,-11,-3
1883,-1,-5,27,-2,0,-4,-9,-3
1884,0,-4,24,0,0,-4,-8,-2
1885,2,-2,21,1,0,-3,-6,-2
1886,3,-1,18,2,1,-2,-3,-1
1887,4,1,16,3,1,-1,-1,0
1888,5,2,14,3,2,2,0,2
1889,6,3,15,3,3,4,0,3
1890,6,4,17,3,3,7,0,4
1891,6,4,20,3,4,8,-2,5
1892,6,4,22,2,3,9,-4,6
1893,6,3,22,0,3,10,-6,7
1894,5,1,22,-2,3,11,-8,8
1895,4,1,20,-3,4,12,-9,7
1896,3,0,18,-5,4,13,-8,7
1897,1,1,15,-5,4,13,-8,6
1898,-1,0,11,-5,4,13,-7,5
1899,-1,-1,7,-5,4,13,-6,4
1900,0,-2,3,-5,3,12,-6,3
1901,1,-2,1,-5,3,13,-7,3
1902,3,-3,-1,-5,3,14,-7,3
1903,4,-3,-2,-4,3,15,-7,3
1904,5,-3,-4,-3,3,16,-7,3
1905,5,-3,-7,-2,3,17,-6,3
1906,5,-1,-9,-2,3,18,-6,3
1907,4,0,-10,-1,3,19,-6,3
1908,2,2,-10,-1,4,21,-6,3
1909,1,2,-10,-1,4,22,-5,3
1910,-1,3,-9,-1,4,22,-6,3
1911,-1,2,-11,-1,5,21,-6,3
1912,-2,2,-13,-1,5,19,-6,3
1913,-2,3,-16,-2,6,18,-6,3
1914,-1,3,-18,-3,6,17,-6,3
1915,-1,4,-20,-4,6,17,-6,3
1916,0,4,-21,-5,6,17,-6,3
1917,1,3,-23,-7,5,16,-7,3
1918,0,3,-25,-9,4,14,-7,3
1919,-1,2,-29,-11,3,12,-8,3
1920,-1,2,-34,-12,2,10,-8,3
1921,-2,2,-39,-12,1,7,-8,3
1922,-3,2,-43,-12,0,4,-7,2
1923,-3,1,-45,-12,-1,2,-7,0
1924,-3,1,-45,-12,-1,0,-6,-1
1925,-4,1,-44,-13,-2,-2,-6,-3
1926,-4,1,-43,-13,-2,-4,-6,-4
1927,-5,0,-44,-13,-2,-5,-6,-5
1928,-6,-1,-46,-13,-2,-6,-6,-6
1929,-6,-1,-46,-12,-2,-7,-6,-7
1930,-5,0,-44,-9,-2,-8,-5,-6
1931,-5,1,-41,-6,-1,-9,-4,-5
1932,-4,2,-37,-2,1,-9,-3,-4
1933,-3,2,-32,2,1,-8,-2,-3
1934,-2,3,-29,4,2,-7,-2,-2
1935,-2,3,-28,5,3,-7,-2,-2
1936,-1,3,-27,4,3,-7,-2,-1
1937,0,3,-26,2,3,-6,-3,-1
1938,0,4,-24,0,3,-5,-3,0
1939,-1,5,-23,-2,3,-4,-3,0
1940,-2,6,-22,-4,4,-1,-4,-1
1941,-4,6,-20,-6,4,3,-4,-2
1942,-6,7,-18,-8,4,6,-5,-3
1943,-8,6,-14,-10,4,8,-6,-4
1944,-10,5,-10,-13,3,9,-8,-5
1945,-12,4,-6,-16,2,10,-10,-5
1946,-13,3,-5,-17,0,11,-11,-6
1947,-11,1,-6,-18,-2,12,-11,-7
1948,-9,0,-9,-17,-3,11,-9,-7
1949,-6,-1,-12,-16,-4,8,-7,-8
1950,-4,-1,-17,-15,-4,3,-6,-8
1951,-2,-2,-21,-13,-5,-2,-4,-9
1952,-2,-2,-23,-11,-5,-5,-3,-9
1953,-2,-1,-24,-10,-5,-7,-2,-9
1954,-2,-1,-26,-8,-5,-8,-2,-9
1955,-1,0,-27,-6,-5,-10,-1,-8
1956,-1,1,-28,-4,-5,-11,-1,-6
1957,0,1,-30,-2,-4,-14,-1,-4
1958,0,1,-31,-1,-3,-16,-1,-2
1959,1,1,-32,0,-2,-17,-1,-1
1960,1,1,-32,1,-1,-18,-1,1
1961,1,2,-32,1,1,-19,-1,1
1962,1,3,-32,2,1,-19,-2,1
1963,1,4,-31,1,2,-19,-2,1
1964,1,5,-31,1,2,-18,-2,1
1965,0,5,-32,-1,3,-19,-3,1
1966,-1,4,-34,-3,3,-20,-4,0
1967,-1,3,-37,-6,3,-21,-5,-1
1968,-1,2,-39,-8,2,-21,-6,-2
1969,-1,2,-39,-10,2,-20,-7,-1
1970,-1,2,-39,-12,2,-19,-7,0
1971,-1,2,-38,-14,2,-19,-7,1
1972,-1,2,-38,-14,2,-19,-7,2
1973,-2,2,-37,-15,2,-20,-8,2
1974,-2,1,-36,-14,2,-20,-8,2
1975,-2,0,-37,-14,1,-21,-8,1
1976,-2,-1,-38,-12,0,-22,-7,1
1977,0,-1,-41,-10,0,-24,-7,0
1978,1,-1,-45,-7,0,-27,-6,-1
1979,3,-1,-48,-5,-1,-32,-4,-1
1980,4,0,-49,-2,-1,-37,-3,-1
1981,5,0,-50,1,-1,-43,-2,-1
1982,6,0,-50,3,-1,-48,-1,0
1983,7,1,-50,4,-2,-51,0,1
1984,8,1,-49,5,-2,-55,2,1
1985,9,1,-49,6,-2,-61,2,0
1986,9,1,-49,6,-2,-69,2,0
1987,9,1,-52,5,-2,-79,2,-1
1988,9,2,-55,3,-2,-89,1,-1
1989,8,2,-58,1,-3,-97,0,0
1990,6,3,-60,-2,-3,-102,-2,0
1991,3,4,-61,-5,-4,-106,-3,-1
1992,-1,4,-59,-7,-4,-109,-4,-1
1993,-4,4,-55,-10,-5,-110,-6,-2
1994,-6,4,-50,-11,-5,-111,-7,-2
1995,-7,5,-47,-12,-5,-111,-8,-2
1996,-7,5,-48,-12,-5,-111,-8,-2
1997,-6,6,-50,-12,-5,-112,-7,-2
1998,-6,6,-54,-11,-5,-114,-6,-3
1999,-6,6,-57,-11,-5,-117,-5,-4
2000,-6,4,-61,-11,-6,-121,-3,-5
2001,-5,2,-64,-10,-7,-127,-2,-5
2002,-5,-1,-67,-9,-7,-134,-2,-6
2003,-5,-3,-70,-8,-8,-141,-2,-7
2004,-4,-5,-73,-7,-8,-147,-1,-8
2005,-5,-6,-73,-5,-8,-150,0,-9
2006,-5,-6,-71,-3,-8,-150,1,-9
2007,-6,-7,-67,-1,-8,-148,2,-9
2008,-5,-7,-64,0,-7,-145,4,-9
2009,-4,-7,-62,1,-7,-144,4,-9
2010,-2,-8,-60,1,-7,-143,4,-8
2011,-1,-9,-60,1,-6,-143,4,-8
2012,1,-10,-60,0,-6,-142,4,-8
2013,2,-10,-62,0,-6,-140,5,-8
2014,3,-10,-62,-1,-5,-137,5,-8
2015,4,-9,-61,-1,-6,-132,5,-9
2016,3,-8,-59,-1,-6,-127,4,-10
2017,2,-7,-58,-2,-8,-121,3,-10
2018,1,-5,-57,-3,-8,-114,2,-10
2019,-1,-4,-56,-4,-9,-108,1,-10
2020,-3,-3,-53,-5,-8,-101,1,-9
2021,-4,-2,-49,-6,-7,-94,0,-7
2022,-4,-1,-44,-6,-5,-89,0,-5
2023,-5,-1,-40,-5,-3,-85,-1,-4
2024,-5,-1,-36,-5,-2,-82,0,-3
2025,-5,-1,-33,-4,-1,-81,0,-2
2026,-5,-2,-31,-3,-1,-79,1,-2
2027,-5,-3,-31,-1,-1,-77,2,-2
2028,-5,-3,-30,0,-2,-74,3,-3
2029,-6,-3,-30,1,-3,-72,3,-3
2030,-7,-3,-30,2,-3,-70,3,-3
2031,-7,-3,-32,3,-3,-71,4,-3
2032,-6,-3,-35,3,-2,-72,4,-3
2033,-5,-3,-37,3,-1,-75,4,-3
2034,-4,-3,-38,3,-1,-75,4,-2
2035,-3,-3,-38,3,0,-73,3,-1
2036,-3,-3,-38,3,-1,-70,3,0
2037,-1,-3,-37,4,-1,-66,3,1
2038,1,-2,-36,5,0,-62,4,2
2039,3,-1,-33,7,1,-57,4,3
2040,5,0,-28,8,2,-52,5,4
2041,6,1,-22,9,3,-46,5,4
2042,7,2,-14,9,4,-40,4,4
2043,6,3,-5,9,5,-33,2,3
2044,6,3,3,9,5,-26,0,3
2045,6,3,10,8,5,-21,-1,2
2046,5,3,16,8,5,-17,-1,2
2047,5,2,20,8,5,-14,-1,1
2048,5,2,22,7,5,-10,1,1
2049,5,2,23,7,5,-8,2,0
2050,5,1,25,6,4,-6,2,0
2051,4,1,27,4,4,-3,2,0
2052,2,-1,30,3,3,-1,2,-1
2053,-1,-2,32,1,2,0,1,-2
2054,-3,-2,30,-1,2,-2,0,-3
2055,-5,-3,27,-2,1,-5,-2,-4
2056,-6,-3,25,-2,0,-8,-3,-4
2057,-6,-3,23,-2,-1,-10,-4,-4
2058,-6,-2,21,-1,-1,-10,-5,-4
2059,-5,-1,20,0,-2,-9,-5,-3
2060,-3,0,18,2,-3,-6,-3,-2
2061,-1,1,16,3,-3,-4,-2,0
2062,1,3,14,5,-3,-2,1,1
2063,3,5,12,7,-2,1,3,3
2064,6,6,10,8,-2,2,4,5
2065,8,8,10,8,-1,2,6,6
2066,10,9,10,9,0,1,8,6
2067,12,9,11,8,1,-1,9,6
2068,13,8,12,8,2,-2,10,6
2069,14,8,14,6,2,-2,10,6
2070,15,6,16,5,1,0,9,5
2071,15,5,16,5,1,3,8,4
2072,15,3,14,5,0,4,8,3
2073,15,1,12,5,0,4,8,2
2074,15,-1,11,6,-1,5,7,1
2075,14,-2,10,5,-2,5,7,0
2076,12,-2,9,4,-2,6,5,-2
2077,10,-3,11,3,-3,7,5,-3
2078,8,-3,13,2,-5,9,4,-4
2079,6,-3,14,1,-6,10,4,-5
2080,5,-4,16,0,-6,11,4,-6
2081,5,-5,17,-1,-6,12,5,-6
2082,4,-4,17,-1,-6,13,5,-7
2083,3,-3,18,-2,-6,13,4,-7
2084,2,-1,18,-2,-5,12,4,-6
2085,1,1,16,-1,-5,12,5,-6
2086,1,3,13,-1,-4,12,5,-4
2087,2,4,9,1,-4,12,7,-3
2088,4,5,4,2,-2,12,8,0
2089,7,7,-1,3,0,10,10,3
2090,11,8,-4,4,2,6,13,5
2091,14,10,-4,5,4,1,14,8
2092,17,11,-1,6,5,-3,16,10
2093,18,12,3,6,6,-5,17,11
2094,19,12,6,6,6,-5,17,12
2095,18,10,6,6,5,-4,17,12
2096,16,8,4,5,4,-2,17,10
2097,14,5,0,3,2,-2,17,8
2098,12,3,-5,1,1,-3,16,7
2099,10,1,-8,-1,0,-5,14,5
2100,8,-1,-8,-2,-1,-5,13,3
2101,7,-2,-5,-3,-2,-4,12,1
2102,5,-2,-1,-4,-2,-3,11,0
2103,4,-2,3,-4,-2,-2,10,-1
2104,3,-3,5,-5,-2,0,9,-2
2105,2,-4,3,-5,-2,2,9,-3
2106,1,-4,-1,-6,-3,1,8,-4
2107,0,-5,-6,-7,-3,-1,7,-4
2108,-1,-5,-11,-7,-4,-4,7,-5
2109,-2,-5,-15,-7,-4,-7,6,-5
2110,-2,-6,-17,-7,-4,-11,5,-6
2111,-2,-6,-16,-6,-4,-14,5,-6
2112,-3,-6,-14,-6,-5,-15,4,-6
2113,-3,-5,-14,-6,-5,-16,4,-6
2114,-3,-3,-15,-5,-5,-18,5,-4
2115,-2,-1,-18,-3,-4,-21,6,-2
2116,-1,2,-22,-1,-4,-24,7,0
2117,1,4,-25,2,-4,-28,9,2
2118,3,5,-29,4,-4,-31,11,3
2119,5,5,-33,6,-4,-34,13,3
2120,7,5,-37,7,-4,-37,14,3
2121,8,5,-39,8,-3,-39,15,4
2122,10,4,-39,9,-3,-39,16,5
2123,11,4,-38,10,-2,-39,16,6
2124,11,3,-37,10,-3,-39,16,7
2125,11,3,-36,10,-4,-39,15,7
2126,9,2,-35,9,-5,-37,15,6
2127,8,2,-31,8,-5,-34,14,5
2128,7,2,-26,7,-6,-30,13,4
2129,5,1,-21,5,-7,-25,11,2
2130,3,0,-15,4,-7,-20,9,0
2131,1,-1,-10,2,-7,-16,7,-2
2132,-1,-1,-5,1,-6,-12,6,-2
2133,-3,-2,-1,-1,-5,-10,4,-3
2134,-4,-3,4,-2,-4,-8,3,-3
2135,-5,-3,10,-3,-3,-7,3,-3
2136,-6,-4,14,-3,-2,-7,2,-2
2137,-7,-4,18,-4,-1,-7,2,-2
2138,-7,-3,20,-4,1,-7,2,-2
2139,-6,-2,23,-4,1,-5,2,-1
2140,-4,0,24,-3,2,-2,3,1
2141,-2,1,25,-2,3,1,4,2
2142,-1,2,26,0,4,3,4,3
2143,-1,2,28,2,4,5,4,4
2144,-1,3,30,3,4,6,4,5
2145,-1,4,30,3,4,6,3,6
2146,-2,4,28,2,4,4,2,6
2147,-2,3,24,1,3,1,2,5
2148,-2,2,22,0,2,-2,3,3
2149,-2,1,19,0,1,-4,4,2
2150,-1,0,16,0,-1,-5,5,0
2151,1,-1,14,0,-2,-6,5,-1
2152,2,-2,12,0,-2,-6,5,-2
2153,2,-3,12,-1,-3,-6,5,-2
2154,1,-4,13,-1,-4,-6,4,-3
2155,0,-5,16,-2,-4,-5,3,-4
2156,-1,-6,20,-3,-4,-3,2,-5
2157,-1,-7,24,-3,-4,0,2,-5
2158,-2,-7,27,-2,-3,3,2,-5
2159,-2,-7,29,-2,-2,4,2,-5
2160,-3,-8,29,-1,-3,4,2,-5
2161,-3,-8,26,-1,-3,3,1,-5
2162,-4,-7,22,-1,-4,2,-1,-4
2163,-5,-5,18,0,-4,2,-2,-3
2164,-6,-4,13,0,-4,2,-3,-3
2165,-7,-3,10,0,-4,3,-3,-3
2166,-7,-2,7,-1,-4,2,-4,-3
2167,-8,-2,7,-2,-4,2,-4,-5
2168,-8,-1,8,-3,-4,1,-5,-6
2169,-8,-1,10,-4,-5,1,-5,-6
2170,-8,0,11,-4,-6,2,-5,-6
2171,-7,1,12,-3,-7,3,-5,-6
2172,-6,1,11,-1,-7,3,-4,-5
2173,-5,1,9,0,-7,2,-2,-5
2174,-4,1,8,1,-8,0,-1,-6
2175,-3,0,8,1,-8,0,-1,-7
2176,-2,-1,11,1,-8,1,-2,-7
2177,-2,-2,18,1,-7,4,-4,-8
2178,-1,-4,26,1,-6,7,-6,-7
2179,-1,-5,33,2,-5,11,-7,-7
2180,-1,-6,37,2,-3,14,-8,-6
2181,-1,-6,39,2,-3,16,-9,-5
2182,-1,-7,37,2,-3,17,-9,-5
2183,-1,-7,36,1,-3,18,-10,-6
2184,-2,-7,37,-1,-3,18,-12,-6
2185,-4,-7,39,-3,-4,19,-14,-7
2186,-6,-8,41,-5,-4,19,-16,-7
2187,-8,-9,43,-7,-4,20,-18,-8
2188,-10,-11,47,-7,-5,22,-19,-8
2189,-11,-12,52,-7,-5,26,-19,-7
2190,-11,-14,57,-7,-5,30,-19,-6
2191,-11,-15,62,-7,-5,34,-18,-5
2192,-11,-14,64,-6,-5,35,-17,-4
2193,-11,-13,64,-6,-4,36,-15,-3
2194,-10,-12,61,-6,-3,36,-13,-2
2195,-8,-10,57,-6,-2,36,-11,-2
2196,-7,-8,52,-5,-2,35,-9,-2
2197,-6,-6,47,-4,-2,32,-7,-3
2198,-5,-5,42,-3,-3,29,-5,-3
2199,-5,-3,38,-1,-3,26,-4,-4
2200,-5,-2,36,0,-3,24,-3,-5
2201,-6,0,33,1,-4,23,-3,-5
2202,-6,2,31,1,-3,23,-3,-5
2203,-6,3,28,1,-3,24,-3,-4
2204,-5,4,26,1,-3,25,-3,-3
2205,-5,4,25,2,-2,25,-3,-3
2206,-4,4,23,2,-2,25,-3,-2
2207,-5,3,22,2,-2,24,-3,-3
2208,-5,3,22,2,-3,24,-3,-3
2209,-5,2,22,2,-3,24,-3,-3
2210,-6,2,20,1,-3,23,-2,-4
2211,-6,1,19,0,-3,21,-2,-4
2212,-7,1,19,-1,-4,20,-2,-4
2213,-8,0,19,-2,-5,19,-2,-5
2214,-9,-1,17,-2,-6,18,-3,-5
2215,-9,-2,14,-2,-7,17,-3,-5
2216,-9,-3,10,-3,-8,16,-3,-5
2217,-8,-3,6,-3,-8,16,-2,-4
2218,-7,-4,1,-4,-8,16,-2,-4
2219,-6,-3,-2,-3,-7,17,-1,-3
2220,-6,-2,-4,-2,-7,19,-1,-2
2221,-5,-1,-3,0,-7,22,-1,-1
2222,-4,1,-2,2,-7,24,0,-1
2223,-3,2,0,4,-7,27,1,-1
2224,-2,4,1,5,-7,29,2,0
2225,-2,6,2,5,-6,32,3,1
2226,-2,7,1,5,-5,34,4,2
2227,-1,8,1,6,-4,36,4,3
2228,-1,7,1,6,-3,37,5,4
2229,0,7,1,7,-2,38,5,4
2230,1,6,1,7,-2,38,4,4
2231,0,6,1,6,-1,38,4,4
2232,0,5,3,5,-1,38,3,4
2233,-1,5,4,5,0,37,2,4
2234,-2,4,3,5,0,35,2,4
2235,-3,4,-1,4,1,33,2,4
2236,-4,4,-5,4,1,30,2,3
2237,-5,5,-10,3,0,27,2,3
2238,-7,5,-16,2,0,25,2,2
2239,-8,5,-20,1,-1,25,2,2
2240,-9,4,-23,0,-1,25,3,1
2241,-9,3,-25,0,-2,25,3,0
2242,-8,2,-28,-1,-2,26,3,-1
2243,-7,1,-29,-1,-2,27,2,-1
2244,-6,2,-28,-1,-2,31,1,-1
2245,-5,2,-25,-2,-2,35,1,-1
2246,-4,2,-23,-2,-2,39,0,-1
2247,-4,3,-22,-2,-2,42,-1,-1
2248,-3,3,-22,-3,-1,44,-1,-1
2249,-2,4,-22,-2,-1,46,0,-1
2250,-2,5,-22,-2,0,47,1,0
2251,-1,7,-22,-1,1,47,2,1
2252,0,8,-22,0,2,47,3,1
2253,1,8,-23,1,2,47,4,2
2254,2,9,-24,2,2,47,5,3
2255,2,8,-25,2,2,46,5,3
2256,2,8,-24,2,2,46,4,3
2257,3,7,-23,1,2,45,4,4
2258,3,6,-22,1,2,44,4,3
2259,3,4,-19,0,2,43,4,3
2260,2,3,-16,0,2,43,3,2
2261,2,1,-14,-1,1,43,3,1
2262,1,-1,-13,-2,-1,41,3,0
2263,-1,-2,-13,-3,-2,38,3,-1
2264,-1,-4,-10,-4,-3,36,3,-3
2265,-1,-5,-6,-6,-4,37,3,-4
2266,-1,-6,-2,-7,-4,39,2,-5
2267,-1,-7,1,-8,-5,40,1,-6
2268,0,-6,1,-8,-5,41,1,-6
2269,0,-5,1,-8,-5,42,1,-5
2270,0,-3,0,-8,-4,42,1,-4
2271,0,-1,1,-7,-4,43,1,-2
2272,0,1,3,-7,-3,43,0,-1
2273,0,1,5,-6,-3,45,-1,1
2274,1,2,8,-4,-3,46,-1,2
2275,3,1,10,-3,-3,48,-1,2
2276,4,-1,13,-1,-3,51,0,3
2277,6,-2,16,1,-3,53,1,3
2278,7,-3,18,2,-2,54,1,3
2279,6,-4,19,2,-1,52,1,4
2280,5,-5,20,3,0,50,1,4
2281,3,-5,22,3,0,49,0,5
2282,1,-5,26,2,1,48,-1,6
2283,0,-6,29,1,1,47,-2,5
2284,-1,-7,31,0,0,47,-2,5
2285,-1,-8,31,-2,0,46,-2,4
2286,-1,-9,29,-3,-1,45,-2,4
2287,-1,-9,27,-4,-1,45,-2,3
2288,-1,-10,26,-5,-1,45,-1,2
2289,-1,-10,26,-6,-2,44,-1,1
2290,-1,-10,27,-7,-3,43,0,-1
2291,-1,-9,27,-8,-4,43,1,-2
2292,0,-8,29,-8,-4,43,1,-2
2293,1,-7,30,-8,-4,43,2,0
2294,3,-6,29,-7,-4,42,2,2
2295,4,-5,28,-6,-3,43,3,4
2296,5,-4,30,-4,-3,42,3,5
2297,6,-4,31,-2,-2,41,4,5
2298,7,-3,32,0,-1,39,4,4
2299,8,-3,33,2,-1,38,5,4
2300,8,-3,34,2,0,39,5,3
2301,8,-2,37,2,1,40,5,3
2302,7,-1,41,2,1,43,5,2
2303,6,0,45,2,1,46,5,1
2304,4,0,50,2,1,49,5,0
2305,3,-1,55,2,1,50,5,-1
2306,3,-2,59,2,1,51,5,-2
2307,3,-3,61,2,1,52,4,-2
2308,3,-4,61,2,0,53,3,-2
2309,3,-4,58,1,0,55,2,-2
2310,3,-5,56,1,-1,57,1,-1
2311,3,-5,54,1,-2,60,0,0
2312,4,-4,53,0,-2,63,-1,0
2313,5,-4,53,0,-3,69,-1,0
2314,5,-4,55,-1,-4,79,-1,0
2315,5,-4,58,-2,-5,90,-1,-1
2316,5,-3,61,-2,-6,102,-1,-1
2317,4,-3,63,-2,-7,115,0,-2
2318,2,-3,65,-3,-9,127,1,-3
2319,1,-2,66,-3,-9,137,1,-3
2320,0,-2,67,-3,-9,143,1,-3
2321,-1,-2,69,-3,-9,147,1,-3
2322,-1,-2,72,-3,-8,149,0,-3
2323,0,-2,74,-2,-7,150,0,-3
2324,0,-1,75,-1,-5,150,0,-2
2325,1,0,75,1,-4,151,0,0
2326,1,2,75,2,-3,152,1,1
2327,1,2,75,3,-2,153,0,3
2328,2,3,76,4,-1,153,0,4
2329,2,4,76,5,-1,152,-1,4
2330,1,4,75,6,0,150,-1,5
2331,1,5,72,7,1,148,-1,5
2332,1,4,68,7,1,146,-1,6
2333,1,4,65,7,2,145,-1,6
2334,1,2,61,6,2,142,-1,5
2335,1,1,58,5,2,139,-1,5
2336,0,0,56,4,1,136,-2,4
2337,0,-1,55,2,1,133,-2,2
2338,0,-1,52,2,1,130,-1,1
2339,1,-1,48,1,0,129,0,0
2340,2,-1,47,1,0,127,0,-2
2341,2,-2,47,0,-1,124,0,-3
2342,1,-2,49,-1,-1,119,-1,-4
2343,0,-1,50,-2,-1,112,-3,-4
2344,-2,0,49,-2,-1,106,-4,-4
2345,-3,1,45,-3,-2,101,-4,-4
2346,-4,3,40,-3,-2,99,-5,-3
2347,-4,4,37,-3,-3,99,-5,-2
2348,-3,4,35,-3,-3,99,-5,-2
2349,-3,3,34,-3,-4,97,-5,-1
2350,-2,2,33,-3,-4,94,-5,-2
2351,-2,1,30,-3,-3,89,-5,-2
2352,-1,1,27,-2,-3,85,-4,-3
2353,-1,3,26,-1,-3,82,-4,-3
2354,-1,4,26,0,-2,79,-3,-2
2355,-1,6,26,1,-2,77,-3,-1
2356,0,7,23,2,-1,75,-2,0
2357,1,7,20,4,0,72,-2,1
2358,2,6,16,5,1,69,-1,2
2359,2,6,12,6,2,68,-1,3
2360,1,6,10,7,2,68,-2,3
2361,1,6,8,6,2,69,-2,3
2362,0,5,7,6,2,69,-2,2
2363,0,4,6,4,1,68,-2,1
2364,-1,2,5,2,0,66,-2,-1
2365,-1,1,3,0,-1,63,-2,-2
2366,-2,0,-1,-2,-2,60,-2,-3
2367,-2,0,-6,-4,-2,57,-3,-3
2368,-3,0,-11,-5,-3,55,-4,-3
2369,-3,1,-16,-6,-4,54,-5,-3
2370,-3,0,-19,-7,-5,53,-5,-4
2371,-3,0,-19,-8,-6,51,-6,-5
2372,-3,-1,-17,-8,-7,51,-6,-6
2373,-2,-1,-12,-8,-7,52,-6,-6
2374,-2,-1,-8,-8,-6,54,-6,-6
2375,-1,0,-4,-7,-5,56,-6,-5
2376,0,1,-1,-5,-3,58,-6,-3
2377,0,2,2,-3,-3,60,-6,-2
2378,0,3,3,-2,-3,60,-5,-2
2379,0,3,5,0,-3,58,-5,-1
2380,-1,3,6,1,-3,55,-4,-1
2381,-1,3,7,1,-2,52,-3,0
2382,-2,3,7,1,0,49,-3,1
2383,-3,4,5,1,2,46,-2,2
2384,-3,5,2,2,3,43,-2,3
2385,-3,6,-2,3,4,41,-2,4
2386,-3,7,-3,4,4,40,-2,5
2387,-2,8,1,5,4,42,-2,5
2388,-2,8,7,5,4,45,-2,5
2389,-1,7,12,5,3,45,-2,5
2390,0,6,13,4,2,42,-2,3
2391,-1,4,10,3,0,37,-1,2
2392,-1,3,5,1,-2,31,-1,0
2393,-2,2,-1,0,-4,25,0,-2
2394,-2,2,-5,-1,-5,20,-1,-3
2395,-2,2,-7,-2,-5,17,-1,-3
2396,-2,3,-6,-2,-6,15,-2,-4
2397,-2,4,-6,-2,-6,12,-2,-4
2398,-1,5,-4,-2,-6,12,-2,-4
2399,-1,5,-1,-1,-6,13,-2,-3
2400,-1,6,3,0,-6,14,-2,-3
2401,0,6,7,1,-6,14,-1,-2
2402,1,6,9,2,-5,11,0,-1
2403,1,6,13,2,-3,7,1,0
2404,0,6,18,2,-2,2,1,1
2405,0,6,22,2,0,-3,2,2
2406,1,7,25,3,1,-8,2,2
2407,2,7,28,4,2,-14,2,2
2408,4,7,32,5,2,-20,2,2
2409,6,6,38,6,2,-25,3,2
2410,8,6,42,8,2,-28,3,3
2411,9,6,44,11,3,-30,5,4
2412,10,7,45,13,4,-31,5,5
2413,9,8,46,15,6,-32,5,7
2414,8,9,47,16,7,-33,4,7
2415,6,9,50,14,8,-35,3,6
2416,4,7,53,11,7,-37,2,4
2417,3,5,56,8,6,-38,1,1
2418,2,2,56,4,4,-38,1,-2
2419,3,-1,54,1,3,-39,0,-5
2420,3,-3,51,-2,2,-39,-1,-6
2421,4,-5,49,-4,1,-39,-3,-7
2422,4,-6,46,-5,-1,-39,-5,-8
2423,4,-6,42,-7,-1,-39,-7,-8
2424,3,-6,39,-8,-2,-38,-8,-8
2425,2,-4,36,-9,-2,-36,-9,-8
2426,2,-3,35,-9,-1,-35,-9,-7
2427,2,-1,35,-9,0,-34,-8,-7
2428,2,1,37,-9,1,-33,-6,-7
2429,3,3,38,-8,1,-30,-5,-6
2430,4,5,40,-8,2,-27,-4,-6
2431,6,6,42,-7,2,-24,-3,-5
2432,7,6,44,-6,2,-23,-2,-4
2433,8,6,46,-4,3,-22,-1,-4
2434,8,6,47,-2,4,-21,1,-2
2435,8,6,47,0,5,-21,1,-1
2436,7,6,48,2,7,-21,1,1
2437,6,7,50,3,8,-21,1,3
2438,5,6,52,3,8,-22,0,4
2439,5,5,55,3,8,-24,-1,4
2440,4,3,56,2,8,-25,-2,4
2441,3,1,55,1,7,-27,-3,3
2442,3,-1,50,-1,6,-28,-3,2
2443,3,-2,43,-3,5,-32,-3,0
2444,3,-4,35,-5,5,-36,-4,-2
2445,3,-6,28,-7,5,-40,-5,-3
2446,4,-8,21,-9,4,-42,-6,-4
2447,4,-9,16,-11,2,-43,-7,-5
2448,4,-9,12,-14,0,-43,-9,-6
2449,4,-10,8,-16,-2,-41,-9,-7
2450,4,-9,5,-17,-3,-40,-9,-7
2451,5,-9,3,-17,-3,-38,-8,-6
2452,7,-8,2,-17,-1,-36,-6,-5
2453,8,-8,1,-16,1,-34,-5,-4
2454,9,-7,-2,-14,1,-33,-3,-3
2455,9,-6,-4,-12,1,-32,-2,-3
2456,9,-6,-6,-11,0,-33,-1,-2
2457,9,-6,-7,-10,0,-35,-1,-2
2458,10,-6,-9,-10,1,-37,0,-1
2459,10,-6,-10,-9,2,-38,0,-1
2460,10,-5,-12,-8,3,-37,1,1
2461,10,-4,-13,-7,4,-36,1,3
2462,10,-2,-15,-6,5,-34,1,4
2463,10,-1,-16,-4,6,-33,2,5
2464,10,-1,-15,-2,7,-32,1,6
2465,10,0,-14,-2,7,-31,1,6
2466,9,-1,-12,-1,6,-32,0,6
2467,8,-2,-11,-2,5,-34,-1,5
2468,7,-3,-12,-3,3,-36,-2,4
2469,5,-5,-15,-6,2,-39,-2,3
2470,4,-6,-18,-8,0,-42,-2,1
2471,3,-8,-22,-11,-1,-45,-2,-2
2472,3,-9,-27,-12,-2,-46,-2,-3
2473,3,-9,-33,-14,-3,-46,-1,-4
2474,3,-8,-37,-14,-4,-45,-1,-5
2475,3,-7,-39,-14,-4,-43,0,-6
2476,4,-6,-40,-13,-4,-42,0,-6
2477,4,-5,-41,-12,-4,-42,0,-6
2478,5,-4,-42,-11,-3,-42,1,-6
2479,6,-3,-42,-9,-2,-43,0,-5
2480,7,-3,-42,-7,-2,-43,0,-4
2481,8,-2,-43,-6,-1,-42,-1,-3
2482,8,-2,-45,-4,-1,-41,-1,-2
2483,8,-2,-46,-3,0,-39,-2,-1
2484,8,0,-45,-2,2,-38,-2,1
2485,8,2,-43,-2,3,-37,-1,2
2486,7,3,-40,-1,5,-35,-1,4
2487,6,5,-36,0,6,-34,0,4
2488,5,5,-32,1,7,-33,1,5
2489,5,5,-28,1,7,-32,2,5
2490,4,3,-26,2,7,-30,2,4
2491,4,2,-23,2,7,-28,3,4
2492,4,1,-23,2,6,-27,3,3
2493,3,0,-22,2,5,-26,3,2
2494,2,-1,-23,1,3,-27,2,2
2495,1,-2,-24,-1,2,-28,2,1
2496,0,-2,-25,-3,1,-25,2,0
2497,1,-2,-26,-4,1,-20,2,-1
2498,1,-2,-27,-6,0,-15,3,-2
2499,1,-3,-27,-7,1,-11,3,-3
2500,2,-3,-27,-7,1,-7,2,-3
2501,2,-3,-24,-7,0,-5,1,-3
2502,2,-3,-20,-8,0,-3,-1,-3
2503,2,-3,-15,-8,-1,0,-2,-4
2504,2,-3,-13,-8,-3,4,-4,-4
2505,2,-3,-12,-8,-4,8,-4,-4
2506,3,-2,-13,-8,-4,12,-3,-4
2507,4,-1,-14,-8,-3,15,-2,-3
2508,5,2,-14,-7,-2,18,-1,-2
2509,5,5,-14,-6,0,20,1,1
2510,5,7,-12,-5,2,21,2,3
2511,4,8,-9,-3,2,22,2,4
2512,4,8,-5,-1,2,21,2,6
2513,3,8,-4,1,1,21,1,6
2514,4,7,-5,3,1,20,1,7
2515,4,5,-5,4,1,21,1,7
2516,5,3,-6,5,0,22,1,8
2517,5,1,-8,5,-1,22,1,8
2518,4,-1,-10,5,-2,21,1,7
2519,3,-3,-13,5,-4,21,1,6
2520,2,-5,-14,5,-5,20,1,4
2521,2,-6,-16,4,-6,20,2,2
2522,2,-7,-18,3,-7,21,3,0
2523,2,-7,-20,1,-7,22,4,-2
2524,1,-8,-22,-1,-7,23,4,-3
2525,1,-9,-26,-3,-8,23,3,-4
2526,1,-10,-30,-5,-9,22,2,-5
2527,1,-10,-34,-6,-9,23,3,-5
2528,2,-9,-35,-6,-9,25,3,-6
2529,2,-7,-37,-6,-8,25,5,-5
2530,3,-6,-39,-6,-7,25,5,-5
2531,3,-4,-40,-5,-5,25,5,-4
2532,3,-3,-39,-5,-4,26,4,-3
2533,2,-3,-37,-6,-3,27,2,-3
2534,1,-3,-36,-7,-2,28,0,-2
2535,1,-4,-35,-8,-1,29,-2,-2
2536,1,-4,-34,-8,0,30,-3,-1
2537,2,-3,-33,-7,1,31,-3,-1
2538,1,-2,-31,-7,2,33,-3,0
2539,1,-2,-29,-6,3,35,-3,1
2540,0,-1,-26,-5,3,37,-3,1
2541,-1,-1,-23,-5,2,37,-4,1
2542,-1,-2,-23,-4,1,34,-3,0
2543,1,-2,-25,-3,0,31,-2,0
2544,2,-3,-30,-3,0,28,-1,0
2545,3,-4,-34,-2,0,26,-1,-1
2546,4,-5,-37,-2,1,24,0,-1
2547,5,-6,-39,-2,1,21,0,-1
2548,5,-7,-39,-3,1,17,0,-1
2549,6,-7,-38,-3,0,13,1,0
2550,6,-6,-36,-3,-1,11,2,1
2551,6,-4,-31,-3,-2,12,3,2
2552,6,-3,-24,-3,-3,15,4,2
2553,7,-2,-19,-3,-4,17,5,3
2554,7,-1,-15,-2,-5,17,5,3
2555,6,0,-12,-2,-4,15,6,3
2556,6,2,-9,-1,-2,11,6,2
2557,5,2,-7,-1,-1,7,5,2
2558,5,3,-6,-1,1,3,5,2
2559,4,3,-4,-1,3,0,4,1
2560,4,2,-3,0,4,-3,4,1
2561,4,1,0,1,4,-4,3,1
2562,3,1,3,2,5,-3,3,1
2563,3,0,7,3,5,-2,2,1
2564,2,-1,12,3,5,-1,2,2
2565,2,-1,17,3,5,0,2,2
2566,1,-1,20,3,5,0,3,2
2567,0,-1,22,3,4,0,4,2
2568,0,0,25,4,3,0,5,2
2569,0,1,26,4,2,-1,6,1
2570,1,1,26,4,2,-2,8,2
2571,3,1,26,4,2,-3,9,2
2572,4,1,27,4,2,-4,10,3
2573,6,1,30,4,1,-5,11,3
2574,6,0,34,4,0,-6,11,2
2575,6,0,37,3,-2,-9,12,1
2576,6,0,39,3,-3,-14,12,-1
2577,6,-1,41,3,-4,-18,12,-2
2578,5,-2,45,3,-5,-22,13,-2
2579,5,-2,49,4,-6,-24,13,-2
2580,5,-2,54,4,-5,-25,14,-1
2581,6,-2,58,5,-5,-26,15,-1
2582,7,-2,63,4,-4,-26,16,-1
2583,7,-2,70,4,-3,-25,16,-1
2584,7,-2,78,3,-2,-23,16,-1
2585,7,-2,87,3,-2,-21,16,-1
2586,6,-2,95,3,-1,-19,15,-2
2587,6,-1,103,3,0,-17,14,-2
2588,6,-1,110,3,1,-15,13,-1
2589,6,0,115,3,2,-12,12,-1
2590,6,0,120,3,3,-9,10,-1
2591,7,-1,123,3,3,-7,9,-2
2592,8,-2,125,3,2,-5,8,-2
2593,9,-2,126,4,1,-3,8,-2
2594,9,-1,127,5,0,-2,8,-1
2595,9,0,130,5,0,0,8,-1
2596,9,2,132,5,-1,0,8,0
2597,8,2,133,4,-2,0,8,1
2598,7,3,133,3,-2,2,8,1
2599,7,3,133,3,-3,5,9,1
2600,7,2,133,4,-3,9,10,0
2601,8,2,132,5,-2,12,11,0
2602,9,1,133,6,-1,13,12,-1
2603,10,1,135,6,-1,12,13,-1
2604,11,1,136,7,0,10,14,0
2605,11,1,136,7,0,8,16,0
2606,11,1,133,7,1,8,17,1
2607,11,2,130,7,1,10,17,1
2608,11,3,128,7,1,11,18,1
2609,11,3,126,7,2,13,18,1
2610,11,3,125,6,2,15,17,2
2611,11,2,123,5,3,18,15,2
2612,10,2,120,4,3,21,13,2
2613,10,2,116,3,4,24,11,1
2614,8,2,110,3,4,25,10,1
2615,7,2,105,4,5,24,9,2
2616,6,3,102,4,6,23,9,2
2617,5,3,100,3,6,21,8,2
2618,3,4,99,2,6,20,7,2
2619,3,4,98,1,6,20,6,1
2620,2,5,96,0,6,19,6,1
2621,2,5,93,-1,5,18,6,0
2622,3,5,87,-1,5,16,6,-1
2623,4,5,81,1,4,13,7,-1
2624,5,5,76,2,3,10,9,0
2625,6,5,72,3,2,5,10,0
2626,6,5,68,5,1,0,11,1
2627,7,5,65,6,1,-7,12,1
2628,8,5,63,8,1,-14,14,1
2629,9,5,62,9,1,-21,15,1
2630,9,4,59,9,1,-26,16,1
2631,8,3,56,8,1,-31,16,-1
2632,8,2,51,7,1,-35,17,-2
2633,7,2,48,6,1,-36,16,-3
2634,8,2,46,5,2,-37,16,-3
2635,8,2,45,5,3,-36,16,-2
2636,9,2,46,4,3,-33,15,-1
2637,9,3,48,4,4,-27,14,0
2638,8,3,50,4,3,-21,13,0
2639,7,3,54,3,3,-14,12,0
2640,5,2,57,2,2,-8,11,0
2641,4,1,61,0,2,-2,9,-1
2642,4,1,65,-1,1,4,8,-1
2643,3,0,68,-2,2,9,7,-1
2644,3,0,70,-3,2,12,5,0
2645,2,1,71,-4,2,13,3,1
2646,0,2,70,-5,2,12,2,1
2647,-1,3,68,-5,2,10,1,2
2648,-1,3,65,-5,2,9,0,3
2649,0,4,62,-5,3,8,1,4
2650,1,4,62,-4,3,8,1,4
2651,2,4,63,-3,3,7,2,4
2652,3,3,66,-1,3,5,4,4
2653,4,3,68,1,2,1,5,3
2654,5,2,68,2,2,-3,7,2
2655,5,2,68,2,1,-6,7,2
2656,5,1,68,2,1,-11,7,2
2657,4,1,70,1,2,-15,5,2
2658,4,1,72,1,2,-19,4,2
2659,3,1,75,-1,2,-22,2,2
2660,2,1,76,-1,2,-24,0,3
2661,2,1,73,-2,2,-27,-1,3
2662,1,1,66,-3,1,-30,-1,3
2663,1,1,58,-3,1,-34,-1,3
2664,0,0,52,-4,1,-36,-1,3
2665,1,-2,46,-5,1,-37,-1,2
2666,1,-3,39,-5,1,-37,0,2
2667,2,-4,30,-5,1,-38,1,2
2668,3,-5,18,-5,1,-41,1,2
2669,4,-4,3,-5,1,-45,2,1
2670,5,-4,-12,-5,1,-49,2,1
2671,5,-2,-26,-4,2,-51,3,1
2672,6,-1,-38,-3,3,-52,3,1
2673,7,1,-49,-1,4,-52,4,1
2674,9,2,-61,0,5,-53,5,2
2675,10,3,-75,2,5,-55,6,2
2676,10,3,-92,3,5,-58,7,3
2677,10,2,-113,5,6,-64,7,4
2678,9,1,-139,6,6,-71,7,4
2679,8,-1,-167,7,6,-79,7,4
2680,8,-1,-195,8,6,-88,7,4
2681,7,-1,-220,8,5,-96,7,4
2682,7,0,-237,9,4,-100,8,4
2683,8,1,-240,9,3,-99,9,4
2684,8,1,-228,8,2,-92,9,4
2685,8,1,-200,8,2,-79,9,3
2686,8,1,-158,7,1,-61,8,3
2687,7,1,-108,6,1,-41,7,2
2688,6,1,-57,5,1,-21,6,2
2689,5,1,-11,5,2,-3,4,2
2690,5,1,26,4,3,13,3,3
2691,5,1,54,4,3,25,2,4
2692,5,0,72,3,4,34,1,5
2693,5,-1,85,2,3,41,1,5
2694,5,-2,96,2,3,46,-1,5
2695,3,-2,106,2,3,50,-1,4
2696,2,-2,112,2,3,52,-2,4
2697,0,-1,112,1,3,52,-2,4
2698,-1,-1,108,0,3,51,-3,4
2699,-2,-1,106,-1,3,51,-3,4
2700,-2,-2,109,-2,3,52,-4,4
2701,-2,-2,114,-2,2,52,-4,4
2702,-2,-1,123,-1,2,53,-3,3
2703,-2,-1,133,1,2,54,-1,3
2704,-2,-1,144,3,2,56,1,2
2705,-1,-1,155,4,2,59,3,2
2706,-1,-2,167,6,2,63,5,1
2707,-2,-2,180,7,2,69,6,1
2708,-2,-2,193,7,1,74,6,0
2709,-3,-2,203,6,1,79,6,0
2710,-3,-3,211,5,0,82,5,-1
2711,-2,-4,217,3,0,86,4,-2
2712,-2,-4,224,2,1,90,3,-2
2713,-1,-3,231,1,1,95,4,-2
2714,1,-3,239,1,1,101,4,-2
2715,1,-2,248,2,0,108,5,-2
2716,2,-2,261,3,-1,115,6,-2
2717,2,-2,278,4,-2,122,7,-2
2718,1,-3,296,3,-2,129,7,-2
2719,1,-3,315,3,-2,137,7,-2
2720,-1,-4,334,2,-2,145,7,-2
2721,-1,-5,357,1,-2,156,7,-3
2722,-2,-6,382,1,-1,169,6,-3
2723,-3,-8,410,1,-1,182,6,-3
2724,-4,-10,436,1,-1,193,7,-2
2725,-5,-10,453,1,-1,198,7,-2
2726,-6,-10,458,1,-1,197,8,-2
2727,-7,-9,450,1,-1,194,8,-2
2728,-7,-8,433,1,0,188,9,-3
2729,-7,-6,413,2,0,182,9,-3
2730,-6,-5,394,3,1,176,10,-2
2731,-4,-3,378,4,1,171,10,-2
2732,-3,-3,363,5,2,166,10,-2
2733,-2,-2,347,5,2,159,11,-2
2734,-3,-2,330,5,2,152,11,-2
2735,-4,-2,312,4,2,145,10,-2
2736,-5,-1,295,2,1,139,9,-1
2737,-7,-1,276,0,1,131,7,0
2738,-8,0,256,-2,-1,123,5,1
2739,-9,1,234,-4,-2,114,4,1
2740,-10,1,211,-5,-2,107,4,1
2741,-10,1,188,-5,-3,100,4,1
2742,-9,2,163,-5,-3,93,4,0
2743,-9,2,136,-4,-2,84,4,0
2744,-8,2,108,-3,-2,74,3,0
2745,-9,1,79,-2,-1,62,2,-1
2746,-9,1,52,-2,0,48,1,-1
2747,-8,1,26,-1,0,34,1,-2
2748,-8,0,3,0,0,22,1,-3
2749,-7,-1,-17,1,-1,11,1,-3
2750,-6,-2,-35,1,-1,3,1,-4
2751,-5,-2,-52,1,-1,-4,0,-4
2752,-5,-2,-68,1,-1,-10,-1,-3
2753,-4,-2,-85,1,0,-16,-2,-2
2754,-3,-1,-102,1,1,-23,-2,-2
2755,-1,-1,-118,2,1,-31,-2,-2
2756,0,-1,-132,3,1,-39,-1,-2
2757,1,0,-144,5,1,-47,0,-2
2758,2,1,-155,8,1,-54,1,-2
2759,2,3,-165,9,2,-61,2,-2
2760,2,4,-173,10,2,-68,2,-2
2761,1,4,-179,11,2,-73,2,-1
2762,1,4,-181,12,2,-76,2,0
2763,1,4,-183,14,2,-77,3,2
2764,1,4,-184,16,3,-78,5,3
2765,1,5,-187,17,4,-77,7,5
2766,2,6,-189,18,4,-75,8,6
2767,2,7,-191,17,5,-73,8,7
2768,2,7,-192,15,5,-71,8,7
2769,2,7,-193,12,5,-68,7,7
2770,1,6,-194,8,4,-64,6,6
2771,1,5,-195,6,3,-61,5,6
2772,0,4,-194,3,3,-57,4,6
2773,-1,3,-192,1,2,-54,2,5
2774,-2,1,-190,-1,2,-51,1,4
2775,-2,-2,-186,-2,2,-48,0,2
2776,-3,-4,-183,-3,2,-45,-1,1
2777,-4,-6,-180,-3,1,-43,-1,-1
2778,-4,-7,-177,-3,0,-41,-2,-3
2779,-4,-8,-174,-2,-1,-39,-2,-4
2780,-4,-9,-172,-2,-2,-36,-3,-5
2781,-3,-9,-169,-1,-2,-32,-3,-5
2782,-1,-9,-168,-2,-1,-29,-3,-5
2783,0,-8,-170,-1,1,-26,-3,-5
2784,1,-6,-173,0,2,-25,-3,-4
2785,2,-4,-176,1,3,-26,-2,-2
2786,1,-2,-178,3,4,-27,-2,-1
2787,0,-1,-178,4,5,-29,-2,0
2788,-1,1,-177,5,6,-30,-2,1
2789,-2,2,-175,5,7,-31,-3,1
2790,-4,2,-172,5,6,-32,-4,1
2791,-5,2,-170,5,5,-33,-6,2
2792,-7,2,-168,5,4,-33,-7,1
2793,-7,2,-166,5,2,-34,-8,1
2794,-8,1,-165,4,1,-35,-9,0
2795,-9,0,-165,3,-1,-38,-9,-1
2796,-9,0,-167,0,-2,-40,-9,-1
2797,-10,0,-171,-2,-2,-42,-8,-1
2798,-10,1,-174,-3,-2,-42,-7,-1
2799,-11,1,-175,-3,-2,-43,-7,0
2800,-11,2,-174,-3,-2,-42,-7,0
2801,-11,2,-172,-3,-2,-41,-7,0
2802,-11,3,-168,-3,-2,-41,-6,0
2803,-10,3,-164,-3,-2,-40,-6,0
2804,-9,3,-160,-3,-1,-39,-6,0
2805,-8,2,-158,-3,-1,-39,-5,-1
2806,-7,1,-155,-4,1,-41,-5,-1
2807,-6,1,-150,-4,2,-42,-5,-1
2808,-5,1,-145,-4,3,-44,-5,-1
2809,-5,2,-139,-4,4,-44,-6,0
2810,-6,4,-135,-4,6,-45,-6,1
2811,-6,6,-133,-4,7,-46,-6,2
2812,-7,7,-131,-3,8,-49,-6,3
2813,-7,8,-128,-4,8,-52,-6,2
2814,-8,7,-124,-4,8,-56,-6,1
2815,-9,6,-117,-4,7,-61,-6,0
2816,-11,4,-110,-4,7,-64,-7,-1
2817,-13,2,-102,-4,6,-65,-8,-1
2818,-16,0,-94,-5,6,-66,-9,-1
2819,-18,-2,-88,-5,5,-66,-10,-1
2820,-20,-3,-82,-6,4,-66,-12,-1
2821,-21,-4,-76,-6,3,-65,-13,-2
2822,-23,-4,-71,-7,2,-63,-15,-2
2823,-25,-5,-67,-7,1,-61,-16,-2
2824,-27,-4,-67,-7,1,-61,-16,-2
2825,-28,-4,-70,-8,1,-60,-15,-2
2826,-29,-3,-74,-7,0,-60,-14,-2
2827,-28,-3,-78,-7,-1,-59,-13,-2
2828,-26,-3,-81,-6,-2,-56,-12,-2
2829,-24,-4,-84,-5,-3,-53,-12,-2
2830,-22,-4,-85,-4,-4,-48,-12,-2
2831,-19,-4,-87,-2,-4,-44,-12,-2
2832,-17,-4,-92,-1,-4,-42,-12,-1
2833,-14,-2,-96,1,-3,-42,-11,0
2834,-12,0,-100,2,-2,-41,-10,1
2835,-10,3,-104,3,-1,-39,-8,2
2836,-9,6,-109,4,1,-38,-7,4
2837,-8,9,-116,5,3,-37,-5,5
2838,-7,11,-128,7,4,-39,-4,6
2839,-5,13,-144,9,5,-45,-3,8
2840,-4,14,-166,10,6,-54,-3,9
2841,-4,14,-194,11,6,-68,-3,9
2842,-3,14,-228,10,6,-85,-3,10
2843,-4,13,-269,9,7,-107,-4,10
2844,-5,12,-321,7,7,-135,-5,10
2845,-7,9,-392,5,7,-171,-7,10
2846,-8,6,-483,3,6,-216,-8,9
2847,-10,3,-581,1,5,-261,-9,7
2848,-11,-1,-640,-1,3,-287,-10,6
2849,-14,-3,-619,-3,2,-276,-11,4
2850,-16,-5,-516,-3,0,-230,-11,3
2851,-18,-5,-360,-4,-2,-161,-11,1
2852,-19,-6,-190,-5,-3,-88,-12,0
2853,-19,-6,-55,-5,-4,-30,-12,-1
2854,-19,-6,16,-5,-4,0,-13,-1
2855,-18,-6,30,-4,-3,8,-13,-1
2856,-17,-7,22,-4,-3,8,-13,0
2857,-16,-7,20,-3,-2,10,-13,1
2858,-14,-7,27,-2,-1,16,-13,1
2859,-12,-7,34,-1,0,21,-12,2
2860,-10,-5,38,1,2,26,-12,2
2861,-9,-2,46,1,4,33,-10,3
2862,-8,2,58,2,6,45,-9,4
2863,-6,6,74,2,7,59,-9,5
2864,-5,8,85,2,7,70,-8,5
2865,-4,9,90,2,7,77,-7,5
2866,-2,10,90,3,7,79,-7,6
2867,-1,10,91,5,6,79,-5,6
2868,1,10,92,7,6,79,-4,6
2869,3,9,95,9,6,80,-3,5
2870,4,8,97,10,5,79,-3,5
2871,4,6,97,10,5,77,-3,4
2872,3,4,93,8,5,72,-5,4
2873,2,1,89,6,5,66,-7,3
2874,0,-2,87,3,4,61,-9,3
2875,-2,-4,89,1,3,57,-10,2
2876,-3,-7,92,-1,1,54,-11,1
2877,-3,-8,93,-2,-1,50,-11,0
2878,-3,-10,94,-3,-2,44,-11,-2
2879,-4,-12,96,-3,-3,39,-12,-3
2880,-4,-13,99,-4,-3,34,-13,-4
2881,-5,-14,102,-5,-4,28,-13,-4
2882,-6,-15,101,-4,-4,22,-12,-5
2883,-7,-14,97,-4,-3,15,-10,-5
2884,-7,-13,94,-3,-2,10,-7,-5
2885,-6,-10,92,-1,-1,5,-5,-5
2886,-5,-8,89,1,1,1,-2,-5
2887,-4,-5,84,2,2,-5,-1,-4
2888,-1,-3,79,4,3,-10,1,-3
2889,2,0,74,6,3,-12,3,0
2890,6,4,71,8,4,-13,5,3
2891,10,8,68,11,4,-13,8,5
2892,12,11,64,14,5,-14,10,7
2893,13,12,60,15,6,-14,12,8
2894,13,12,57,15,6,-15,12,8
2895,12,11,58,14,6,-14,12,7
2896,11,8,58,12,5,-13,10,7
2897,9,7,59,10,5,-12,8,7
2898,7,5,60,7,5,-11,5,7
2899,5,4,62,5,4,-10,2,6
2900,2,2,66,3,3,-9,-1,5
2901,0,-1,70,2,2,-7,-3,4
2902,-3,-4,72,0,0,-4,-4,2
2903,-4,-6,72,-2,-1,-2,-5,0
2904,-5,-8,71,-3,-2,-1,-5,-1
2905,-6,-9,68,-4,-2,-1,-5,-3
2906,-6,-10,63,-4,-2,-2,-5,-4
2907,-7,-9,56,-4,-2,-4,-4,-4
2908,-7,-8,50,-4,-2,-7,-3,-5
2909,-7,-6,45,-3,-2,-9,-1,-5
2910,-6,-5,42,-3,-1,-10,0,-4
2911,-4,-5,41,-1,-1,-11,1,-4
2912,-1,-5,41,1,0,-10,3,-3
2913,3,-4,42,2,1,-8,4,-2
2914,7,-2,41,5,2,-5,6,0
2915,9,1,40,7,4,-2,9,2
2916,11,3,38,9,5,0,10,3
2917,12,5,36,10,6,2,11,4
2918,13,6,34,10,6,3,10,5
2919,13,6,32,9,7,3,9,5
2920,14,5,30,8,6,3,7,5
2921,13,3,28,7,6,3,5,4
2922,12,1,27,6,4,2,3,3
2923,11,-1,26,5,3,0,2,2
2924,9,-3,25,4,1,-3,1,1
2925,7,-5,25,3,0,-5,1,0
2926,6,-7,24,2,-1,-7,1,0
2927,5,-10,24,1,-2,-9,0,-1
2928,5,-13,24,0,-3,-12,-1,-1
2929,3,-16,23,-1,-4,-14,-3,-2
2930,1,-18,22,-2,-6,-14,-5,-3
2931,-1,-19,21,-3,-7,-14,-7,-4
2932,-2,-19,20,-4,-8,-12,-7,-5
2933,-3,-18,19,-3,-8,-12,-7,-6
2934,-3,-17,18,-3,-8,-13,-7,-6
2935,-3,-16,16,-2,-8,-15,-7,-6
2936,-2,-14,14,0,-7,-15,-6,-6
2937,-1,-12,13,2,-6,-14,-5,-5
2938,0,-10,14,3,-4,-11,-4,-5
2939,1,-8,16,5,-2,-8,-2,-4
2940,2,-5,18,7,-1,-5,-1,-2
2941,3,-2,18,8,0,-3,1,-1
2942,3,0,18,8,0,-1,2,0
2943,4,2,17,8,0,3,1,1
2944,3,3,16,7,1,8,1,2
2945,3,4,17,7,1,14,-1,3
2946,2,4,20,5,2,20,-2,4
2947,1,4,23,3,2,25,-3,4
2948,0,3,26,0,2,28,-4,3
2949,-1,2,28,-3,1,27,-5,2
2950,-2,1,30,-5,0,25,-6,1
2951,-3,0,34,-6,-1,22,-7,-1
2952,-4,-1,36,-6,-1,19,-8,-3
2953,-4,-2,36,-6,0,18,-8,-4
2954,-4,-2,36,-5,0,17,-7,-4
2955,-4,-3,36,-4,1,17,-7,-5
2956,-5,-4,36,-3,1,17,-8,-4
2957,-5,-5,39,-2,1,16,-8,-4
2958,-4,-6,43,0,1,14,-8,-3
2959,-3,-7,52,1,2,13,-8,-3
2960,-2,-7,60,2,3,13,-8,-2
2961,-1,-6,67,2,5,14,-8,-1
2962,0,-5,71,3,6,16,-7,0
2963,1,-3,73,3,6,17,-6,0
2964,1,-2,72,4,6,18,-5,1
2965,2,0,68,5,5,18,-4,1
2966,3,1,64,5,5,18,-3,1
2967,5,2,60,5,5,17,-2,2
2968,6,4,55,5,6,17,-1,3
2969,7,6,50,5,6,18,0,4
2970,9,8,46,6,6,19,2,4
2971,9,9,43,6,6,21,3,5
2972,9,10,43,6,5,23,3,5
2973,8,10,42,5,5,24,3,4
2974,7,9,41,4,5,24,2,4
2975,6,8,39,3,5,22,1,3
2976,5,7,35,2,4,20,0,3
2977,4,5,31,2,3,15,-2,3
2978,3,4,25,1,2,8,-3,3
2979,1,2,20,0,1,2,-5,3
2980,0,1,16,-1,0,-4,-7,2
2981,-1,0,13,-1,-1,-10,-8,2
2982,-1,0,10,0,-1,-16,-8,2
2983,-1,0,8,1,-1,-22,-7,2
2984,-1,0,6,2,-2,-28,-6,3
2985,0,1,2,3,-2,-34,-6,3
2986,0,1,0,4,-2,-37,-5,3
2987,0,1,-1,4,-2,-38,-5,2
2988,0,1,-4,5,-3,-40,-5,2
2989,2,2,-8,6,-3,-41,-5,2
2990,3,2,-13,7,-3,-43,-4,1
2991,5,3,-16,8,-2,-45,-2,1
2992,6,3,-14,9,-1,-44,-1,2
2993,7,5,-12,9,0,-42,0,3
2994,8,7,-10,8,2,-39,2,4
2995,8,9,-9,8,3,-37,3,6
2996,9,11,-9,8,5,-35,4,7
2997,9,13,-8,8,5,-32,4,9
2998,9,13,-8,8,5,-30,4,9
2999,8,13,-8,8,5,-28,3,9
3000,7,13,-10,8,4,-28,3,8
3001,7,12,-12,7,3,-30,2,8
3002,7,12,-13,6,2,-32,2,7
3003,6,10,-14,6,1,-34,2,6
3004,6,9,-14,5,-1,-37,2,5
3005,5,7,-13,4,-2,-41,2,4
3006,4,4,-13,4,-3,-43,1,3
3007,3,2,-14,3,-4,-45,1,2
3008,3,-1,-12,2,-4,-46,0,1
3009,2,-2,-10,1,-4,-45,-2,1
3010,1,-1,-8,-1,-3,-44,-3,0
3011,0,0,-9,-2,-1,-42,-4,1
3012,0,3,-11,-3,0,-40,-5,1
3013,0,5,-12,-3,0,-37,-6,2
3014,1,6,-12,-2,1,-35,-6,3
3015,2,6,-13,0,1,-32,-5,4
3016,4,7,-15,3,1,-30,-4,5
3017,5,7,-16,6,1,-28,-2,5
3018,6,6,-16,8,1,-25,-1,5
3019,7,6,-16,9,2,-23,0,5
3020,7,5,-15,9,2,-20,0,4
3021,7,5,-14,8,2,-18,0,4
3022,6,5,-13,6,3,-13,0,4
3023,5,5,-13,5,3,-8,-1,5
3024,5,6,-12,3,3,-2,-1,5
3025,5,5,-11,2,3,3,-2,6
3026,4,4,-10,0,2,6,-4,5
3027,4,2,-10,-2,0,5,-5,4
3028,4,-1,-12,-3,-2,2,-7,3
3029,4,-2,-15,-4,-3,-3,-8,1
3030,3,-3,-17,-4,-5,-8,-7,-1
3031,4,-3,-19,-4,-5,-12,-6,-3
3032,4,-2,-19,-4,-5,-15,-4,-4
3033,6,-2,-21,-3,-5,-18,-3,-4
3034,6,-1,-23,-3,-4,-19,-1,-3
3035,7,-1,-26,-2,-3,-19,-1,-2
3036,6,0,-28,-2,-2,-18,-1,-1
3037,5,1,-28,-1,-2,-16,-1,0
3038,5,1,-25,-1,-2,-13,-2,1
3039,4,2,-22,1,-3,-12,-2,1
3040,4,3,-21,2,-3,-11,-1,2
3041,6,4,-22,5,-4,-10,-1,3
3042,7,6,-24,7,-4,-8,0,3
3043,8,7,-25,9,-4,-6,1,4
3044,9,8,-26,10,-3,-5,1,4
3045,9,7,-25,11,-1,-5,1,4
3046,9,5,-23,12,1,-4,1,4
3047,8,3,-20,12,3,-3,1,3
3048,7,1,-17,12,5,-2,0,3
3049,6,-1,-14,11,7,1,-1,2
3050,5,-3,-12,10,7,3,-2,1
3051,3,-4,-11,8,7,6,-3,0
3052,1,-5,-13,6,6,7,-4,-1
3053,-1,-5,-17,5,4,8,-5,-2
3054,-2,-6,-20,3,3,9,-6,-2
3055,-2,-6,-23,1,1,10,-7,-3
3056,-3,-7,-23,-1,-2,12,-8,-3
3057,-3,-7,-23,-2,-4,13,-9,-4
3058,-4,-6,-20,-3,-5,16,-10,-4
3059,-5,-5,-17,-4,-5,19,-11,-4
3060,-5,-4,-14,-3,-3,22,-12,-3
3061,-5,-2,-10,-3,-2,26,-11,-2
3062,-4,0,-7,-2,-1,30,-10,0
3063,-3,2,-4,-1,0,33,-8,2
3064,-1,5,-3,0,1,36,-6,3
3065,1,8,-3,2,1,37,-3,5
3066,1,11,-4,4,2,36,-1,6
3067,2,13,-5,6,3,34,0,8
3068,2,14,-7,6,4,31,1,9
3069,2,14,-10,7,4,28,1,9
3070,3,12,-13,7,5,26,1,10
3071,3,9,-15,7,5,24,1,9
3072,3,6,-16,8,5,23,2,9
3073,3,3,-15,8,5,21,2,8
3074,2,0,-15,8,5,18,3,7
3075,2,-3,-16,7,5,12,2,6
3076,1,-4,-19,6,4,6,1,4
3077,0,-6,-23,4,4,0,0,2
3078,-1,-7,-30,2,2,-6,-2,0
3079,-2,-8,-35,1,0,-12,-4,-2
3080,-3,-8,-41,-1,-2,-17,-5,-4
3081,-3,-7,-47,-2,-4,-22,-6,-5
3082,-4,-6,-53,-3,-6,-27,-7,-6
3083,-6,-5,-57,-3,-6,-31,-8,-7
3084,-7,-5,-61,-4,-7,-35,-10,-7
3085,-9,-4,-66,-5,-7,-39,-12,-6
3086,-10,-4,-71,-6,-7,-42,-13,-5
3087,-10,-3,-76,-5,-7,-43,-12,-4
3088,-9,-1,-79,-4,-6,-43,-10,-3
3089,-8,1,-77,-2,-5,-41,-7,-2
3090,-7,3,-71,0,-3,-39,-5,-1
3091,-6,4,-64,2,-2,-38,-3,0
3092,-5,4,-56,3,-1,-37,-2,1
3093,-3,4,-49,5,0,-37,-2,2
3094,-2,3,-44,6,0,-35,-1,3
3095,-2,3,-40,8,1,-35,0,3
3096,-2,3,-38,9,2,-37,0,4
3097,-2,3,-36,9,3,-42,0,4
3098,-3,2,-34,10,4,-50,0,4
3099,-3,1,-34,9,5,-58,0,3
3100,-3,-1,-33,8,4,-67,0,2
3101,-3,-3,-32,7,4,-74,0,1
3102,-3,-5,-32,5,4,-81,-1,-1
3103,-4,-7,-35,4,3,-90,-2,-3
3104,-4,-8,-40,2,1,-98,-4,-4
3105,-5,-8,-45,0,-1,-106,-6,-5
3106,-5,-8,-48,-1,-2,-111,-7,-5
3107,-5,-7,-50,-2,-4,-113,-8,-5
3108,-5,-7,-50,-2,-5,-112,-7,-5
3109,-5,-6,-48,-1,-5,-110,-6,-5
3110,-5,-5,-45,-1,-5,-108,-6,-6
3111,-4,-4,-45,0,-5,-108,-5,-6
3112,-4,-2,-45,0,-4,-108,-4,-5
3113,-3,1,-46,1,-2,-109,-3,-4
3114,-3,4,-47,3,-1,-110,-2,-2
3115,-2,6,-47,4,1,-112,-1,-1
3116,-2,6,-48,5,1,-115,-1,1
3117,-2,5,-48,5,2,-119,0,2
3118,-2,4,-48,6,2,-123,0,2
3119,-2,3,-48,6,3,-124,-1,3
3120,-2,3,-46,7,3,-124,-1,3
3121,-3,3,-45,8,4,-121,-1,4
3122,-3,2,-42,9,4,-118,-1,5
3123,-4,1,-40,9,3,-115,-2,5
3124,-6,0,-38,9,1,-112,-3,4
3125,-7,-1,-36,7,-1,-108,-4,2
3126,-9,-3,-37,5,-2,-104,-6,-1
3127,-10,-5,-40,2,-4,-100,-7,-3
3128,-11,-6,-41,-1,-5,-96,-8,-5
3129,-12,-8,-41,-4,-6,-92,-8,-7
3130,-13,-10,-38,-6,-7,-88,-9,-9
3131,-14,-11,-36,-7,-8,-85,-9,-10
3132,-13,-11,-39,-8,-8,-83,-8,-10
3133,-13,-11,-43,-8,-8,-82,-8,-10
3134,-11,-10,-48,-7,-7,-82,-8,-8
3135,-10,-8,-50,-6,-6,-81,-8,-7
3136,-9,-7,-51,-5,-4,-80,-8,-5
3137,-7,-5,-51,-4,-4,-78,-8,-3
3138,-6,-4,-51,-2,-3,-77,-7,-1
3139,-5,-3,-52,-1,-3,-76,-6,-1
3140,-4,-3,-52,0,-2,-73,-5,-1
3141,-3,-3,-52,0,-2,-70,-4,-1
3142,-4,-3,-50,1,-2,-66,-4,-1
3143,-4,-2,-47,2,-1,-62,-3,-1
3144,-5,-2,-46,2,-1,-58,-4,-1
3145,-6,-2,-46,3,0,-55,-4,0
3146,-7,-3,-46,3,1,-54,-4,0
3147,-7,-3,-46,3,1,-53,-5,0
3148,-7,-5,-45,3,2,-52,-5,-1
3149,-6,-6,-44,2,2,-51,-6,-1
3150,-5,-7,-42,1,2,-49,-6,-2
3151,-5,-8,-39,0,1,-46,-6,-2
3152,-6,-9,-35,-1,1,-40,-7,-3
3153,-7,-10,-30,-2,-1,-34,-9,-4
3154,-8,-11,-27,-3,-2,-30,-10,-5
3155,-9,-11,-26,-4,-3,-28,-10,-6
3156,-9,-11,-24,-4,-4,-28,-10,-7
3157,-9,-10,-23,-3,-4,-30,-9,-8
3158,-9,-9,-22,-3,-5,-32,-8,-8
3159,-8,-7,-21,-2,-5,-34,-6,-7
3160,-7,-5,-20,-1,-4,-36,-5,-6
3161,-6,-2,-19,-1,-3,-38,-3,-4
3162,-4,0,-19,1,-2,-40,-2,-3
3163,-3,3,-20,1,-1,-42,-1,-1
3164,-2,5,-22,2,1,-44,-1,1
3165,-1,6,-23,2,2,-47,-1,3
3166,-1,6,-25,2,2,-50,-1,4
3167,0,7,-27,3,3,-56,-1,5
3168,1,7,-31,3,3,-63,-1,5
3169,2,6,-35,4,3,-69,-1,6
3170,2,5,-37,4,3,-76,-1,6
3171,2,4,-36,3,4,-81,-2,6
3172,1,3,-35,3,4,-87,-2,5
3173,0,1,-33,2,4,-94,-2,4
3174,-2,-1,-32,1,3,-102,-2,2
3175,-3,-2,-32,-1,2,-108,-2,0
3176,-4,-3,-32,-2,1,-112,-2,-2
3177,-4,-4,-31,-3,0,-111,-2,-4
3178,-4,-5,-30,-4,-1,-107,-3,-5
3179,-4,-6,-30,-5,-1,-102,-4,-5
3180,-3,-6,-30,-5,-1,-97,-4,-5
3181,-3,-6,-32,-5,0,-95,-5,-5
3182,-3,-5,-34,-5,1,-94,-6,-5
3183,-2,-5,-35,-5,2,-96,-6,-6
3184,-2,-4,-37,-5,2,-99,-7,-6
3185,-2,-4,-39,-4,2,-103,-7,-6
3186,-2,-3,-41,-4,1,-108,-7,-5
3187,-3,-1,-44,-4,1,-114,-8,-5
3188,-4,0,-47,-5,0,-121,-8,-5
3189,-4,1,-52,-5,0,-129,-8,-5
3190,-5,2,-60,-4,0,-139,-8,-4
3191,-5,2,-69,-3,0,-149,-8,-3
3192,-6,3,-77,-2,1,-158,-7,-1
3193,-6,2,-81,-2,3,-166,-8,1
3194,-7,1,-82,-2,4,-172,-8,2
3195,-7,-1,-81,-3,5,-176,-9,3
3196,-7,-2,-78,-4,6,-179,-9,4
3197,-8,-4,-75,-4,5,-180,-10,4
3198,-7,-4,-73,-4,5,-182,-10,4
3199,-7,-5,-72,-4,4,-184,-9,3
3200,-6,-6,-70,-5,3,-188,-9,1
3201,-6,-7,-69,-5,1,-193,-8,-1
3202,-6,-7,-70,-7,0,-198,-8,-2
3203,-6,-8,-73,-8,-1,-203,-8,-3
3204,-6,-8,-77,-8,-3,-208,-8,-3
3205,-5,-8,-79,-8,-4,-212,-9,-2
3206,-3,-8,-80,-8,-5,-217,-9,-2
3207,-2,-8,-79,-7,-5,-222,-8,-2
3208,1,-6,-79,-5,-5,-226,-7,-2
3209,2,-5,-79,-4,-4,-230,-6,-1
3210,4,-3,-79,-2,-4,-232,-5,-1
3211,4,-1,-77,-1,-4,-232,-4,-1
3212,4,1,-75,1,-3,-231,-3,-1
3213,3,4,-74,2,-3,-229,-2,-1
3214,3,6,-74,2,-2,-227,-1,0
3215,2,8,-74,3,-1,-225,-1,2
3216,2,9,-73,3,0,-224,-1,3
3217,2,9,-71,3,1,-223,-1,5
3218,3,8,-67,3,1,-223,-1,6
3219,3,6,-63,3,2,-222,-1,7
3220,2,5,-60,3,2,-221,-2,7
3221,1,4,-57,2,2,-219,-2,7
3222,-1,3,-54,1,2,-218,-3,7
3223,-2,2,-51,-1,2,-220,-4,6
3224,-3,1,-51,-3,2,-231,-4,5
3225,-4,0,-54,-4,2,-255,-3,3
3226,-5,-1,-62,-4,1,-289,-3,2
3227,-5,-2,-71,-4,0,-325,-2,1
3228,-5,-3,-80,-3,-2,-355,-1,-1
3229,-5,-4,-85,-1,-3,-372,0,-3
3230,-6,-6,-89,0,-5,-377,1,-5
3231,-6,-7,-92,1,-6,-374,1,-6
3232,-6,-8,-94,1,-6,-369,0,-7
3233,-6,-8,-93,1,-7,-366,-1,-8
3234,-7,-8,-91,0,-7,-362,-2,-8
3235,-7,-6,-88,-1,-6,-356,-3,-8
3236,-6,-4,-87,-1,-6,-347,-3,-7
3237,-5,-2,-87,-1,-5,-336,-2,-6
3238,-3,0,-88,0,-4,-327,-1,-5
3239,-1,2,-89,2,-3,-318,-1,-3
3240,0,4,-89,3,-3,-310,0,-2
3241,1,6,-86,4,-3,-301,0,0
3242,1,8,-81,5,-2,-290,0,2
3243,1,9,-73,5,-1,-279,-1,4
3244,1,10,-66,5,1,-268,-1,6
3245,1,9,-60,4,3,-258,-2,7
3246,0,9,-57,2,4,-249,-3,7
3247,-2,8,-55,-1,5,-241,-4,6
3248,-3,8,-55,-3,5,-233,-5,4
3249,-5,7,-54,-4,4,-225,-5,3
3250,-5,7,-54,-4,4,-218,-5,2
3251,-4,6,-55,-4,3,-212,-5,2
3252,-3,6,-58,-4,2,-208,-4,3
3253,-1,6,-65,-3,1,-206,-4,3
3254,0,5,-74,-2,0,-205,-3,3
3255,1,5,-83,-1,-1,-205,-3,3
3256,1,3,-91,-1,-2,-205,-4,2
3257,0,2,-95,-2,-3,-204,-5,1
3258,-1,1,-97,-2,-3,-201,-6,0
3259,-2,1,-97,-3,-4,-197,-7,-1
3260,-3,2,-97,-4,-4,-193,-8,-1
3261,-3,2,-96,-4,-4,-187,-9,-1
3262,-3,3,-93,-3,-3,-180,-9,-1
3263,-2,3,-89,-2,-2,-173,-8,-1
3264,-1,5,-84,-1,-1,-166,-6,0
3265,0,6,-81,0,0,-160,-4,1
3266,2,8,-79,1,2,-154,-2,2
3267,2,9,-76,2,4,-150,0,3
3268,1,9,-73,1,5,-145,-1,3
3269,-1,8,-70,-1,5,-141,-1,3
3270,-3,7,-67,-3,5,-137,-2,2
3271,-5,5,-64,-4,4,-132,-3,1
3272,-6,3,-62,-5,3,-127,-3,1
3273,-7,1,-60,-5,2,-121,-4,1
3274,-7,0,-60,-4,1,-115,-5,2
3275,-6,-2,-62,-3,-1,-111,-5,2
3276,-6,-4,-66,-3,-2,-108,-5,2
3277,-5,-5,-69,-4,-3,-105,-4,1
3278,-5,-6,-71,-5,-5,-102,-3,-1
3279,-5,-7,-70,-6,-6,-99,-1,-2
3280,-4,-7,-68,-7,-7,-96,1,-5
3281,-4,-8,-65,-8,-7,-93,2,-6
3282,-3,-10,-61,-8,-7,-91,3,-8
3283,-3,-11,-56,-8,-7,-87,3,-9
3284,-3,-12,-51,-9,-7,-83,2,-10
3285,-4,-11,-46,-9,-6,-77,1,-10
3286,-4,-10,-43,-9,-4,-72,-1,-10
3287,-5,-8,-42,-9,-2,-69,-2,-8
3288,-5,-5,-42,-8,-1,-66,-3,-7
3289,-4,-2,-41,-7,1,-64,-3,-6
3290,-4,1,-39,-6,2,-62,-3,-4
3291,-3,3,-37,-3,3,-59,-2,-2
3292,-3,4,-36,-1,3,-56,0,-1
3293,-2,5,-33,2,3,-53,1,-1
3294,-1,5,-29,5,4,-48,3,0
3295,0,5,-23,7,4,-41,4,0
3296,0,5,-17,9,4,-33,5,0
3297,0,5,-12,9,4,-25,6,-1
3298,-1,6,-8,7,4,-19,5,-1
3299,-2,6,-5,6,4,-14,4,-1
3300,-3,5,-2,4,3,-11,3,-2
3301,-2,2,-1,3,2,-10,2,-2
3302,-1,-1,-1,2,0,-11,1,-3
3303,1,-4,-1,1,-2,-13,2,-4
3304,2,-7,-1,1,-4,-16,3,-5
3305,3,-9,-1,1,-6,-19,4,-6
3306,3,-10,-2,1,-7,-22,4,-6
3307,3,-10,-4,1,-7,-24,4,-7
3308,3,-11,-5,1,-7,-26,4,-7
3309,4,-11,-6,1,-6,-28,3,-7
3310,4,-11,-6,0,-6,-29,1,-7
3311,5,-10,-6,0,-5,-29,0,-6
3312,6,-9,-7,0,-4,-29,-1,-5
3313,6,-8,-7,1,-3,-27,-2,-5
3314,6,-7,-7,3,-2,-25,-2,-4
3315,6,-6,-5,4,-2,-22,-3,-4
3316,5,-5,-1,5,-2,-18,-3,-3
3317,5,-3,5,6,-1,-13,-4,-2
3318,4,-1,11,7,0,-9,-4,-1
3319,4,1,17,8,1,-6,-3,1
3320,4,2,23,10,3,-5,-3,2
3321,6,3,29,11,6,-4,-2,4
3322,7,3,34,13,8,-4,-1,5
3323,8,3,36,14,9,-4,-1,6
3324,8,2,37,14,9,-5,0,6
3325,7,1,36,13,8,-5,0,6
3326,6,-1,35,11,6,-4,0,5
3327,5,-2,34,9,4,-3,0,4
3328,4,-3,33,7,2,-3,-1,3
3329,4,-5,32,5,1,-4,-2,1
3330,3,-7,32,2,0,-5,-4,-1
3331,2,-9,33,-1,-2,-8,-5,-3
3332,-1,-10,34,-4,-4,-12,-7,-6
3333,-2,-12,36,-6,-5,-17,-8,-8
3334,-4,-12,38,-7,-7,-21,-8,-9
3335,-5,-13,39,-8,-7,-23,-7,-11
3336,-5,-12,38,-8,-8,-24,-6,-11
3337,-5,-12,36,-7,-8,-23,-6,-11
3338,-4,-11,35,-6,-9,-20,-6,-10
3339,-4,-10,34,-5,-9,-16,-7,-9
3340,-3,-9,35,-5,-9,-11,-7,-8
3341,-3,-8,37,-5,-9,-7,-8,-7
3342,-2,-7,40,-5,-8,-3,-9,-6
3343,-3,-6,43,-4,-6,1,-9,-4
3344,-3,-5,45,-4,-5,5,-10,-3
3345,-3,-2,46,-3,-3,8,-10,-1
3346,-3,0,45,-1,-1,10,-8,0
3347,-3,3,42,1,0,11,-5,1
3348,-3,4,38,3,2,11,-3,2
3349,-2,3,36,4,2,9,-1,2
3350,-2,3,35,5,3,8,1,2
3351,-3,2,37,5,3,6,2,2
3352,-4,1,39,3,3,5,1,2
3353,-6,1,43,2,3,4,1,1
3354,-8,1,46,-1,2,5,-1,1
3355,-9,1,50,-3,1,8,-2,0
3356,-9,-1,53,-4,0,12,-4,-1
3357,-8,-3,56,-6,-2,17,-6,-2
3358,-7,-5,57,-8,-4,21,-8,-3
3359,-7,-6,56,-9,-5,23,-9,-4
3360,-6,-7,52,-10,-7,24,-9,-5
3361,-5,-7,48,-10,-7,24,-8,-6
3362,-3,-7,42,-10,-8,24,-7,-7
3363,-2,-7,36,-10,-7,23,-5,-7
3364,0,-7,29,-9,-7,23,-4,-7
3365,0,-7,22,-9,-7,23,-2,-7
3366,0,-6,16,-7,-7,23,-2,-6
3367,-1,-5,11,-6,-7,24,-2,-5
3368,-2,-4,8,-4,-6,25,-2,-4
3369,-3,-2,6,-3,-4,25,-2,-2
3370,-4,-1,5,-2,-3,26,-2,-2
3371,-4,0,4,-1,-1,27,-2,-2
3372,-4,1,3,0,1,27,-2,-1
3373,-4,2,5,1,3,27,-1,0
3374,-3,3,6,2,4,26,1,1
3375,-2,3,7,3,4,24,2,1
3376,-1,2,7,4,4,20,3,2
3377,0,0,5,4,2,16,4,1
3378,0,-2,2,4,1,10,4,1
3379,1,-3,-2,3,-1,5,4,0
3380,1,-4,-5,2,-3,1,4,-1
3381,0,-3,-6,2,-4,-1,5,-2
3382,-1,-3,-6,2,-6,-1,5,-3
3383,-1,-3,-3,1,-7,-1,4,-5
3384,-3,-3,3,-1,-9,1,3,-6
3385,-4,-4,10,-3,-10,3,2,-7
3386,-5,-5,17,-4,-10,6,0,-7
3387,-5,-5,23,-6,-9,8,-1,-7
3388,-5,-5,25,-7,-8,8,-2,-7
3389,-5,-6,26,-7,-7,8,-2,-7
3390,-4,-6,27,-7,-7,8,-3,-6
3391,-4,-7,28,-7,-6,7,-3,-5
3392,-3,-6,28,-6,-6,6,-3,-3
3393,-4,-6,26,-5,-5,4,-4,-2
3394,-4,-6,25,-4,-5,3,-4,-1
3395,-5,-5,27,-3,-5,2,-4,0
3396,-6,-5,31,-2,-5,1,-4,1
3397,-6,-5,35,0,-4,1,-4,1
3398,-7,-5,39,1,-4,1,-4,1
3399,-8,-4,41,2,-5,1,-4,1
3400,-8,-4,40,3,-5,-1,-3,1
3401,-8,-4,38,3,-6,-3,-2,1
3402,-8,-5,36,2,-7,-5,-1,1
3403,-7,-5,33,1,-8,-6,0,0
3404,-6,-5,30,1,-9,-7,2,-1
3405,-6,-4,26,1,-9,-10,2,-1
3406,-5,-2,22,1,-9,-13,3,-1
3407,-5,-1,20,1,-9,-18,5,-2
3408,-3,1,19,1,-9,-23,6,-2
3409,-2,3,18,1,-9,-28,7,-2
3410,-1,4,14,1,-9,-34,7,-1
3411,0,6,9,0,-9,-38,7,-1
3412,1,7,4,0,-9,-43,6,0
3413,1,8,1,-1,-8,-47,5,1
3414,1,7,-1,-1,-8,-52,3,2
3415,2,6,1,-1,-8,-55,2,2
3416,3,4,5,-1,-8,-56,0,3
3417,3,4,10,0,-8,-55,-1,3
3418,3,3,14,1,-7,-54,-1,4
3419,3,3,18,1,-6,-53,-2,4
3420,3,3,21,2,-5,-51,-1,5
3421,2,2,25,2,-3,-49,-1,6
3422,2,1,30,3,-3,-46,-2,6
3423,1,0,33,3,-2,-42,-1,6
3424,-1,1,33,5,-2,-38,-1,6
3425,-2,2,31,6,-2,-32,0,7
3426,-3,3,29,8,-2,-25,1,7
3427,-3,4,28,9,-1,-18,2,8
3428,-4,4,27,10,-1,-11,3,8
3429,-4,4,25,9,-2,-6,3,8
3430,-5,3,22,8,-3,-1,3,7
3431,-5,2,17,7,-4,4,3,6
3432,-5,3,12,7,-4,8,4,6
3433,-4,3,8,6,-4,12,4,6
3434,-3,4,5,5,-4,16,4,6
3435,-3,4,4,4,-3,20,4,6
3436,-2,5,6,3,-3,23,4,5
3437,-2,5,7,2,-3,27,3,4
3438,-3,5,7,1,-3,31,3,2
3439,-4,5,6,0,-4,34,2,0
3440,-5,4,4,-1,-4,37,1,-2
3441,-6,3,2,-3,-4,39,0,-3
3442,-8,3,3,-4,-4,41,-1,-4
3443,-10,3,5,-6,-4,43,-3,-4
3444,-12,4,9,-7,-4,45,-6,-4
3445,-15,4,11,-8,-4,46,-8,-3
3446,-17,4,10,-9,-4,46,-9,-2
3447,-18,4,7,-9,-4,45,-10,-1
3448,-19,5,3,-7,-3,42,-10,-1
3449,-18,5,1,-5,-3,39,-9,0
3450,-17,6,-2,-3,-2,37,-7,1
3451,-15,6,-5,-1,-2,34,-6,2
3452,-14,5,-9,1,-2,33,-5,2
3453,-13,5,-13,1,-3,33,-5,1
3454,-12,5,-18,1,-5,33,-5,1
3455,-12,5,-23,-1,-6,33,-4,-1
3456,-11,5,-27,-3,-7,31,-5,-2
3457,-11,5,-31,-5,-8,27,-5,-3
3458,-10,3,-32,-7,-8,24,-6,-4
3459,-9,2,-32,-8,-8,21,-6,-5
3460,-8,0,-33,-8,-8,19,-6,-6
3461,-6,-1,-34,-8,-8,19,-5,-6
3462,-5,-1,-33,-7,-8,20,-4,-6
3463,-4,0,-32,-6,-8,23,-2,-5
3464,-3,2,-31,-5,-7,27,0,-4
3465,-2,4,-30,-3,-6,31,1,-3
3466,-1,5,-28,0,-5,34,3,-2
3467,1,7,-25,2,-4,37,4,-1
3468,2,8,-19,5,-3,39,4,0
3469,3,8,-12,7,-2,41,5,1
3470,4,7,-3,8,-2,44,5,1
3471,4,5,8,8,-2,47,5,1
3472,4,2,18,9,-3,50,4,0
3473,3,0,26,9,-3,52,3,-1
3474,3,-2,33,8,-2,53,2,-1
3475,3,-3,37,8,-2,52,2,-1
3476,3,-4,40,7,-1,50,2,-1
3477,4,-4,43,6,-1,49,2,0
3478,4,-4,44,5,0,46,2,0
3479,3,-3,44,4,1,42,2,1
3480,2,-2,42,3,1,37,1,2
3481,2,-2,37,2,1,32,0,2
3482,1,-1,32,1,1,28,0,2
3483,1,-2,26,0,1,24,-1,1
3484,1,-3,20,-1,1,19,-1,1
3485,0,-3,14,-2,0,15,-1,0
3486,-1,-2,7,-2,0,12,-1,-1
3487,-2,-1,-2,-2,0,9,-1,-1
3488,-3,2,-10,-1,0,7,0,0
3489,-4,4,-17,0,1,4,1,1
3490,-5,6,-24,1,1,-1,1,2
3491,-5,7,-31,1,1,-5,1,3
3492,-5,8,-38,1,1,-10,1,3
3493,-5,8,-46,1,2,-13,1,2
3494,-5,7,-55,0,2,-17,0,2
3495,-5,7,-65,-1,2,-20,-1,1
3496,-5,5,-77,-1,2,-26,-2,0
3497,-4,3,-93,0,3,-35,-2,0
3498,-3,1,-111,0,4,-46,-2,0
3499,-1,0,-131,1,5,-57,0,-1
3500,1,-1,-147,2,6,-68,2,-1
3501,3,-2,-158,2,6,-76,4,-1
3502,4,-2,-165,1,7,-82,5,-1
3503,5,-3,-171,1,7,-90,6,0
3504,6,-3,-178,-1,7,-100,5,0
3505,6,-3,-185,-1,6,-110,5,1
3506,7,-4,-185,-2,5,-120,5,1
3507,7,-3,-171,-2,4,-125,5,1
3508,6,-3,-140,-3,3,-122,6,1
3509,6,-3,-97,-3,3,-110,6,1
3510,5,-3,-56,-4,2,-97,6,1
3511,5,-3,-25,-4,2,-86,5,2
3512,6,-3,-9,-3,2,-81,4,3
3513,6,-1,-8,-2,3,-80,4,5
3514,8,1,-13,-1,4,-80,4,7
3515,8,2,-19,0,5,-79,5,8
3516,9,3,-23,1,6,-77,6,9
3517,9,4,-24,0,6,-74,7,8
3518,8,3,-25,-1,7,-72,6,7
3519,6,1,-24,-2,7,-70,5,6
3520,4,-1,-24,-4,7,-68,4,3
3521,2,-3,-24,-5,7,-67,3,1
3522,1,-4,-23,-6,7,-64,1,-1
3523,0,-6,-20,-6,6,-61,0,-2
3524,-1,-6,-14,-6,6,-56,-1,-2
3525,-1,-7,-5,-5,6,-50,-1,-2
3526,-1,-7,3,-4,6,-44,-1,-1
3527,0,-7,7,-4,6,-38,0,0
3528,0,-6,7,-3,7,-33,1,1
3529,1,-5,5,-3,8,-29,2,2
3530,1,-5,1,-3,8,-27,2,3
3531,2,-4,-3,-3,8,-26,3,4
3532,3,-3,-5,-3,8,-26,3,4
3533,3,-3,-7,-3,7,-26,4,4
3534,3,-3,-9,-2,7,-27,5,5
3535,3,-2,-11,-2,6,-27,6,5
3536,2,-2,-11,-2,7,-27,7,5
3537,2,-1,-12,-2,7,-26,8,5
3538,2,-1,-13,-1,7,-27,8,5
3539,2,-1,-15,0,6,-27,9,4
3540,2,0,-17,0,6,-27,9,4
3541,2,0,-20,0,6,-25,10,4
3542,2,1,-23,-1,5,-23,10,4
3543,3,1,-28,-1,5,-22,10,4
3544,3,1,-32,-1,4,-23,11,4
3545,3,2,-36,-1,4,-22,11,4
3546,2,2,-37,0,3,-21,11,3
3547,1,2,-35,1,2,-19,11,3
3548,1,3,-31,2,1,-16,10,3
3549,1,3,-25,4,1,-11,9,4
3550,1,4,-20,5,1,-6,8,4
3551,0,4,-15,5,1,-1,8,4
3552,0,5,-11,5,2,4,8,4
3553,-1,5,-7,4,2,7,9,4
3554,-1,5,-5,1,3,10,9,3
3555,-2,4,-3,-2,2,12,9,2
3556,-2,2,-1,-4,1,15,9,1
3557,-3,0,1,-5,1,17,8,0
3558,-3,-2,2,-5,0,20,7,-1
3559,-4,-3,2,-5,-1,22,6,-2
3560,-4,-4,1,-4,-1,23,6,-3
3561,-3,-5,-2,-4,-1,22,6,-3
3562,-2,-5,-4,-3,-1,21,6,-3
3563,-1,-5,-5,-2,-1,19,6,-4
3564,-1,-5,-6,-2,0,19,6,-3
3565,0,-5,-6,-2,0,19,5,-3
3566,0,-5,-8,-2,1,19,4,-2
3567,0,-4,-12,-2,1,18,3,-1
3568,0,-5,-13,-2,1,18,3,0
3569,1,-5,-11,-1,2,19,2,1
3570,2,-5,-5,1,3,20,2,1
3571,2,-4,1,1,3,20,2,2
3572,1,-3,5,1,4,19,2,2
3573,1,-2,9,1,5,18,3,1
3574,0,-1,11,0,6,16,4,1
3575,-1,-1,13,0,6,15,4,0
3576,-2,-2,15,-1,6,13,4,-2
3577,-4,-3,15,-2,5,12,3,-4
3578,-5,-4,14,-3,4,11,1,-5
3579,-7,-5,13,-5,4,11,0,-6
3580,-8,-4,14,-6,3,13,-1,-6
3581,-9,-4,18,-7,2,16,-2,-5
3582,-9,-3,23,-8,2,20,-2,-4
3583,-9,-3,26,-8,1,23,-2,-4
3584,-9,-3,28,-8,0,25,-2,-4
3585,-9,-3,30,-7,0,26,-1,-4
3586,-9,-3,33,-6,1,27,0,-5
3587,-8,-2,37,-5,1,29,2,-5
3588,-7,-2,40,-3,1,32,3,-4
3589,-6,-1,44,-2,1,34,4,-4
3590,-5,0,48,-1,0,38,4,-3
3591,-4,1,55,-1,-1,45,3,-3
3592,-3,1,63,-1,-3,53,2,-3
3593,-3,2,73,-1,-3,62,2,-3
3594,-3,2,82,-2,-4,69,1,-4
3595,-2,2,89,-2,-4,74,1,-4
3596,-1,1,92,-2,-4,77,1,-4
3597,1,1,91,-1,-3,79,1,-3
3598,3,1,87,1,-2,82,2,-2
3599,5,0,81,2,0,87,2,0
3600,5,-1,77,2,1,94,2,1
3601,5,-2,74,3,2,103,1,1
3602,4,-3,75,2,2,113,0,1
3603,2,-3,81,2,2,123,-1,1
3604,2,-3,88,2,1,131,-1,1
3605,2,-3,96,2,-1,136,-1,1
3606,3,-3,104,1,-2,138,-1,2
3607,5,-3,111,-1,-3,138,0,2
3608,6,-3,119,-3,-4,138,0,2
3609,6,-4,126,-5,-5,138,0,1
3610,6,-4,133,-7,-5,139,0,0
3611,5,-4,141,-8,-5,141,1,-1
3612,4,-4,151,-8,-5,146,1,-1
3613,4,-3,162,-7,-4,151,2,-1
3614,4,-2,172,-6,-3,157,2,-1
3615,4,-2,182,-5,-2,165,2,1
3616,5,-1,192,-3,-1,172,3,1
3617,5,-1,200,-2,-1,178,3,2
3618,6,-1,205,-1,-2,183,3,2
3619,6,-1,210,1,-2,188,4,2
3620,6,-1,213,1,-2,193,4,1
3621,5,-1,220,2,-3,199,4,0
3622,4,-1,229,2,-3,207,4,-1
3623,4,-2,241,3,-3,217,4,-1
3624,3,-3,254,4,-2,226,4,-1
3625,3,-4,263,6,-1,233,4,-1
3626,3,-4,268,7,1,236,4,0
3627,3,-4,267,10,2,235,4,1
3628,3,-4,262,12,3,232,4,2
3629,4,-4,254,13,4,228,4,4
3630,5,-4,243,14,4,224,4,5
3631,6,-4,230,12,4,222,4,5
3632,7,-4,217,10,3,219,4,5
3633,7,-4,204,7,2,216,3,5
3634,6,-3,193,5,0,212,3,5
3635,6,-3,183,2,-2,207,2,4
3636,5,-4,173,0,-5,202,2,2
3637,5,-5,162,-3,-6,196,2,0
3638,4,-5,149,-4,-6,187,3,-2
3639,3,-4,134,-5,-6,177,3,-3
3640,3,-3,116,-5,-5,165,3,-4
3641,3,-1,97,-4,-4,152,3,-4
3642,3,2,77,-2,-4,139,3,-3
3643,3,3,57,-1,-3,127,2,-3
3644,3,4,38,2,-3,117,2,-2
3645,3,4,21,4,-3,108,2,-2
3646,3,4,6,5,-2,100,2,-1
3647,3,3,-8,6,-1,92,2,-1
3648,3,2,-22,6,1,84,1,1
3649,3,0,-35,5,3,78,-1,1
3650,3,-1,-46,4,4,71,-2,2
3651,3,-3,-56,3,5,65,-3,3
3652,3,-4,-66,3,6,59,-4,2
3653,3,-5,-76,3,6,52,-5,2
3654,3,-6,-87,4,5,47,-5,1
3655,3,-7,-97,4,4,43,-4,1
3656,3,-7,-107,4,4,42,-4,1
3657,3,-6,-114,2,3,43,-4,2
3658,3,-5,-116,0,3,46,-5,3
3659,2,-4,-114,-3,3,51,-6,3
3660,1,-2,-107,-7,2,57,-8,3
3661,1,-1,-95,-9,2,65,-9,2
3662,1,0,-80,-11,2,76,-10,1
3663,1,1,-65,-12,1,85,-9,1
3664,2,2,-54,-11,1,93,-7,0
3665,2,2,-47,-10,0,97,-6,0
3666,3,3,-44,-9,0,98,-5,0
3667,4,5,-42,-7,0,98,-4,1
3668,4,6,-41,-6,1,97,-4,1
3669,5,6,-40,-4,1,95,-3,2
3670,6,6,-40,-3,1,92,-2,2
3671,7,5,-44,-2,1,86,-1,3
3672,8,4,-49,0,1,78,-1,3
3673,9,3,-53,1,1,69,0,2
3674,9,2,-56,1,2,60,0,2
3675,9,1,-57,2,3,51,0,2
3676,9,0,-59,4,4,42,0,2
3677,8,0,-61,6,5,35,0,2
3678,7,0,-63,8,6,29,0,3
3679,7,2,-65,9,7,24,1,4
3680,6,3,-68,10,8,18,1,6
3681,5,5,-72,10,9,12,0,7
3682,4,6,-76,9,9,7,0,7
3683,3,7,-80,8,10,3,-1,8
3684,1,7,-83,5,10,0,-2,7
3685,-1,7,-86,2,11,-1,-3,7
3686,-2,6,-91,-1,10,-1,-4,5
3687,-3,5,-95,-5,9,-1,-6,4
3688,-3,4,-99,-7,7,1,-7,3
3689,-2,4,-99,-9,5,4,-7,2
3690,-1,4,-93,-11,2,9,-8,1
3691,0,3,-80,-12,-1,18,-8,0
3692,1,3,-63,-12,-2,28,-8,-1
3693,1,3,-44,-13,-4,37,-8,-2
3694,1,2,-30,-13,-5,43,-8,-3
3695,1,1,-21,-13,-5,47,-8,-3
3696,0,1,-13,-12,-6,50,-8,-3
3697,-1,0,-3,-12,-6,55,-7,-4
3698,-1,-1,10,-11,-7,63,-6,-4
3699,-1,-1,21,-9,-7,70,-4,-3
3700,0,-1,28,-7,-7,76,-3,-2
3701,1,0,31,-4,-7,80,-1,-1
3702,3,1,31,-1,-5,83,0,1
3703,4,2,31,1,-4,87,1,3
3704,6,2,34,2,-3,93,2,4
3705,6,2,43,2,-1,100,2,4
3706,6,2,55,1,0,109,1,3
3707,4,1,70,1,1,119,0,3
3708,2,2,86,0,1,128,-1,2
3709,0,2,102,-1,1,138,-2,2
3710,-2,2,119,-1,0,148,-3,2
3711,-3,3,135,-3,-2,156,-3,2
3712,-4,2,149,-5,-3,164,-3,1
3713,-5,2,160,-7,-3,170,-3,0
3714,-6,2,169,-9,-3,175,-4,-1
3715,-6,2,175,-10,-3,179,-4,-1
3716,-6,2,176,-11,-4,182,-4,-2
3717,-5,4,174,-12,-4,183,-4,-2
3718,-4,5,170,-12,-4,182,-4,-2
3719,-3,6,165,-12,-4,180,-4,-1
3720,-3,7,157,-12,-3,175,-4,0
3721,-2,7,146,-13,-2,170,-3,1
3722,-1,6,133,-13,-2,162,-3,2
3723,-1,6,120,-13,-1,154,-3,2
3724,-1,5,106,-12,-1,145,-2,2
3725,0,4,91,-11,0,137,-2,2
3726,1,3,73,-9,2,127,-3,3
3727,2,2,51,-7,3,116,-2,3
3728,4,2,24,-4,4,103,-2,4
3729,6,2,-6,-2,6,88,0,4
3730,8,2,-39,1,8,73,1,5
3731,10,2,-73,3,9,57,2,4
3732,10,2,-107,4,9,42,3,4
3733,10,3,-141,5,9,27,4,5
3734,9,3,-176,5,8,12,3,5
3735,8,4,-212,4,8,-4,3,6
3736,7,5,-249,4,8,-20,3,6
3737,6,7,-285,3,9,-37,3,7
3738,6,8,-320,2,9,-52,2,7
3739,7,10,-352,0,8,-66,1,6
3740,7,10,-385,-2,6,-79,0,6
3741,6,10,-420,-4,3,-93,-2,4
3742,6,9,-457,-7,0,-107,-3,2
3743,5,7,-491,-9,-2,-120,-3,1
3744,5,5,-514,-10,-4,-129,-3,-1
3745,4,4,-516,-10,-5,-132,-3,-2
3746,3,3,-491,-10,-6,-124,-3,-3
3747,2,2,-441,-10,-6,-108,-3,-3
3748,1,1,-378,-9,-6,-86,-2,-4
3749,1,-1,-318,-8,-6,-67,-1,-4
3750,1,-2,-276,-7,-5,-55,-1,-4
3751,1,-3,-258,-6,-3,-52,0,-3
3752,2,-3,-247,-4,-2,-51,1,-3
3753,2,-2,-223,-2,0,-42,2,-2
3754,1,0,-177,0,1,-23,3,-1
3755,1,2,-121,2,2,0,4,0
3756,1,5,-74,5,4,19,5,1
3757,2,6,-46,8,5,29,6,2
3758,2,7,-39,9,6,28,6,3
3759,2,7,-44,10,6,22,7,4
3760,2,6,-42,10,6,19,6,4
3761,2,6,-22,9,6,25,6,4
3762,1,4,10,8,6,35,4,3
3763,0,3,36,6,4,42,2,3
3764,-1,2,52,4,2,45,0,2
3765,-3,1,61,1,0,45,-2,1
3766,-3,0,69,-3,-2,46,-3,-1
3767,-3,-1,77,-6,-4,46,-4,-2
3768,-2,-2,80,-8,-6,45,-5,-4
3769,-1,-3,79,-10,-7,41,-6,-4
3770,0,-3,78,-11,-8,37,-6,-5
3771,1,-2,79,-11,-9,33,-6,-5
3772,1,-2,85,-11,-10,32,-5,-5
3773,1,-1,93,-10,-10,31,-5,-5
3774,1,-1,102,-8,-10,33,-3,-5
3775,1,-1,109,-6,-9,35,-2,-5
3776,2,-1,113,-5,-8,37,-1,-5
3777,2,-1,115,-3,-7,40,1,-4
3778,3,-1,116,-2,-5,42,2,-2
3779,3,0,117,0,-3,45,3,0
3780,4,0,118,2,-2,49,4,1
3781,4,-1,117,4,0,51,5,2
3782,5,-1,115,6,1,55,6,2
3783,6,0,113,7,2,57,7,2
3784,7,0,111,7,2,59,8,2
3785,8,0,107,7,3,58,10,1
3786,8,-1,100,8,3,55,10,1
3787,8,-2,94,8,2,52,10,1
3788,7,-3,90,7,1,50,10,0
3789,7,-4,89,7,0,48,10,0
3790,6,-4,88,7,-1,47,10,0
3791,5,-4,87,7,-2,46,10,0
3792,5,-4,84,7,-3,44,10,0
3793,4,-4,84,7,-4,44,9,-1
3794,2,-5,85,5,-5,46,7,-1
3795,0,-5,87,4,-6,47,4,-2
3796,-2,-6,89,2,-7,47,1,-2
3797,-5,-6,89,1,-8,43,-2,-3
3798,-7,-7,89,-1,-8,37,-4,-3
3799,-9,-7,92,-2,-9,29,-6,-4
3800,-11,-7,102,-3,-8,21,-6,-5
3801,-11,-8,119,-3,-7,13,-7,-6
3802,-11,-9,136,-3,-7,1,-7,-7
3803,-10,-9,146,-2,-7,-14,-7,-6
3804,-8,-9,145,-1,-7,-32,-7,-6
3805,-6,-8,133,1,-7,-51,-6,-5
3806,-5,-7,115,2,-7,-67,-5,-4
3807,-4,-6,102,3,-6,-76,-5,-3
3808,-2,-5,101,3,-6,-74,-5,-2
3809,-1,-4,113,4,-6,-64,-5,-1
3810,1,-3,131,5,-5,-52,-5,1
3811,2,-1,148,5,-5,-39,-4,2
3812,3,1,158,6,-4,-30,-3,3
3813,4,2,162,7,-3,-23,-3,4
3814,5,3,162,7,-2,-21,-3,3
3815,5,3,161,6,-1,-20,-3,3
3816,5,2,161,5,-1,-19,-3,2
3817,5,2,163,5,-2,-18,-3,1
3818,4,1,168,4,-2,-14,-3,-1
3819,3,-1,174,2,-2,-9,-3,-2
3820,2,-2,180,0,-2,-3,-4,-4
3821,1,-3,183,-1,-2,2,-4,-5
3822,1,-3,182,-3,-2,4,-4,-6
3823,2,-3,178,-3,-2,4,-4,-6
3824,2,-4,171,-4,-3,1,-4,-7
3825,2,-4,165,-4,-3,-2,-4,-6
3826,2,-5,158,-4,-3,-4,-5,-6
3827,2,-5,152,-4,-3,-4,-5,-6
3828,2,-5,146,-4,-2,-3,-6,-6
3829,2,-5,142,-5,-1,-2,-6,-6
3830,2,-4,137,-5,-1,-1,-6,-6
3831,2,-4,131,-4,0,0,-5,-6
3832,3,-3,124,-4,0,-1,-5,-5
3833,4,-2,112,-4,1,-4,-4,-5
3834,5,-1,97,-4,2,-9,-4,-5
3835,6,0,80,-4,3,-15,-3,-4
3836,6,1,63,-5,4,-21,-3,-4
3837,6,1,45,-5,4,-27,-3,-3
3838,6,0,25,-5,4,-35,-2,-2
3839,7,-1,5,-5,4,-44,-2,-1
3840,7,-2,-13,-5,3,-53,-3,-1
3841,7,-3,-27,-5,2,-63,-4,0
3842,6,-5,-39,-5,1,-71,-5,0
3843,5,-6,-50,-6,0,-78,-7,-1
3844,4,-7,-61,-7,0,-83,-8,-1
3845,4,-7,-73,-8,0,-87,-8,-2
3846,3,-8,-85,-8,0,-92,-8,-3
3847,2,-8,-95,-8,0,-96,-8,-3
3848,1,-8,-105,-7,-1,-100,-7,-3
3849,0,-7,-114,-6,-1,-105,-5,-3
3850,0,-5,-122,-5,-2,-108,-3,-3
3851,0,-3,-128,-3,-2,-111,-2,-4
3852,1,-2,-132,-2,-3,-112,-1,-3
3853,1,1,-135,-1,-3,-112,0,-3
3854,0,3,-136,-1,-2,-111,0,-2
3855,-1,5,-135,0,-1,-108,1,-1
3856,-2,8,-133,0,0,-103,1,1
3857,-3,10,-130,1,1,-99,2,2
3858,-2,10,-130,1,1,-97,3,2
3859,-1,10,-131,2,1,-96,4,2
3860,1,9,-134,2,0,-96,4,2
3861,2,7,-135,2,0,-95,5,1
3862,3,7,-134,3,-1,-94,6,1
3863,2,7,-132,3,-2,-95,6,0
3864,2,7,-132,3,-2,-97,6,0
3865,1,7,-132,3,-3,-104,5,0
3866,0,7,-132,2,-3,-111,3,0
3867,-2,6,-130,0,-3,-117,1,-1
3868,-3,5,-128,-1,-3,-121,0,-1
3869,-5,4,-124,-2,-3,-124,-2,-2
3870,-6,3,-121,-3,-3,-126,-2,-2
3871,-6,2,-117,-4,-3,-127,-2,-3
3872,-6,1,-113,-4,-3,-128,-1,-3
3873,-5,1,-110,-3,-4,-129,-1,-2
3874,-5,2,-105,-3,-4,-129,-1,-2
3875,-5,2,-101,-2,-4,-128,-2,-2
3876,-5,1,-97,-2,-4,-124,-3,-1
3877,-6,1,-94,-2,-4,-118,-3,0
3878,-6,2,-90,-2,-3,-112,-4,1
3879,-5,3,-84,-1,-2,-107,-3,2
3880,-5,4,-75,0,-1,-101,-2,3
3881,-4,5,-65,1,0,-95,-1,4
3882,-2,6,-54,1,1,-88,0,4
3883,-1,6,-43,1,0,-82,1,5
3884,-1,6,-35,1,0,-76,2,4
3885,-1,6,-30,-1,0,-71,3,4
3886,-1,6,-27,-3,0,-68,2,3
3887,-2,6,-25,-4,0,-67,2,2
3888,-3,5,-24,-5,0,-66,1,1
3889,-4,4,-22,-6,-1,-63,0,0
3890,-4,3,-19,-7,-1,-60,-1,-2
3891,-5,3,-15,-7,-1,-57,0,-2
3892,-5,2,-10,-7,-1,-55,0,-3
3893,-5,2,-4,-7,-1,-53,-1,-3
3894,-5,3,0,-7,-1,-52,-1,-2
3895,-5,4,2,-6,-1,-52,-2,-2
3896,-5,4,2,-5,-2,-51,-3,-3
3897,-5,3,-1,-4,-4,-51,-4,-3
3898,-5,2,-5,-4,-5,-49,-5,-4
3899,-4,1,-9,-4,-6,-47,-5,-4
3900,-3,0,-14,-3,-7,-46,-5,-4
3901,-3,0,-20,-2,-7,-48,-4,-3
3902,-3,0,-26,-1,-7,-51,-3,-3
3903,-3,0,-30,-1,-7,-56,-3,-4
3904,-4,0,-31,0,-6,-60,-2,-4
3905,-5,0,-31,-1,-5,-62,-2,-4
3906,-5,0,-30,-1,-5,-62,-2,-4
3907,-5,0,-27,-1,-5,-61,-2,-4
3908,-5,1,-23,-1,-4,-58,-2,-3
3909,-5,1,-19,-2,-4,-54,-2,-2
3910,-6,2,-14,-3,-4,-51,-2,-2
3911,-6,3,-10,-4,-3,-47,-2,-2
3912,-7,4,-6,-6,-3,-44,-3,-2
3913,-8,4,-1,-7,-3,-42,-4,-2
3914,-9,3,3,-8,-3,-40,-4,-2
3915,-10,1,8,-8,-4,-39,-5,-2
3916,-11,-1,15,-10,-5,-38,-7,-3
3917,-12,-4,23,-11,-6,-36,-9,-4
3918,-13,-7,32,-12,-7,-33,-11,-5
3919,-14,-9,42,-13,-7,-30,-12,-6
3920,-13,-11,52,-13,-7,-27,-13,-6
3921,-13,-11,61,-12,-7,-24,-12,-6
3922,-11,-12,70,-11,-8,-20,-11,-7
3923,-10,-11,78,-10,-8,-15,-10,-7
3924,-10,-10,85,-9,-7,-11,-9,-6
3925,-10,-8,89,-9,-7,-8,-8,-5
3926,-10,-6,91,-8,-6,-6,-7,-4
3927,-9,-4,92,-8,-5,-4,-6,-3
3928,-9,-3,95,-8,-4,-4,-5,-2
3929,-8,-1,98,-7,-3,-3,-4,0
3930,-8,1,101,-7,-1,-3,-4,2
3931,-8,2,102,-7,1,-2,-3,3
3932,-8,4,100,-6,2,-2,-2,4
3933,-9,6,96,-6,3,-2,-1,5
3934,-9,9,92,-6,3,-1,0,6
3935,-9,11,86,-5,3,0,0,6
3936,-9,13,78,-5,4,-2,0,7
3937,-9,14,67,-4,4,-5,-1,8
3938,-9,14,53,-4,4,-9,-2,9
3939,-8,13,38,-4,5,-13,-2,10
3940,-8,12,25,-5,5,-17,-2,10
3941,-8,11,15,-6,4,-21,-2,9
3942,-8,10,7,-7,4,-24,-1,8
3943,-8,8,1,-7,4,-27,-1,7
3944,-9,7,-4,-7,3,-30,-2,6
3945,-9,5,-9,-7,3,-33,-2,5
3946,-10,3,-15,-7,3,-35,-2,4
3947,-10,0,-20,-7,3,-38,-2,3
3948,-11,-2,-25,-6,3,-40,-2,3
3949,-11,-3,-30,-6,3,-42,-2,2
3950,-11,-4,-36,-6,3,-44,-2,1
3951,-11,-4,-41,-6,3,-46,-2,1
3952,-10,-4,-45,-6,3,-47,-1,0
3953,-9,-4,-47,-6,3,-49,-1,0
3954,-7,-4,-49,-5,2,-51,0,0
3955,-7,-3,-52,-4,2,-51,1,0
3956,-7,-3,-57,-4,1,-51,2,-1
3957,-7,-3,-61,-3,0,-50,2,-1
3958,-8,-3,-60,-3,0,-46,3,-2
3959,-8,-2,-52,-2,-1,-39,3,-1
3960,-8,-1,-40,-2,-1,-32,4,-1
3961,-7,1,-28,-2,-1,-25,4,0
3962,-7,3,-20,-2,0,-21,4,0
3963,-7,4,-19,-2,1,-20,3,1
3964,-7,5,-21,-2,2,-20,2,2
3965,-7,6,-22,-3,3,-20,1,2
3966,-7,6,-18,-4,2,-17,-1,2
3967,-7,6,-6,-4,1,-9,-1,2
3968,-7,5,12,-5,1,0,0,2
3969,-6,4,34,-5,-1,9,1,1
3970,-5,3,54,-4,-2,16,1,0
3971,-5,2,66,-3,-3,19,1,-1
3972,-5,1,67,-2,-4,17,1,-2
3973,-4,-1,55,-2,-4,10,1,-2
3974,-3,-3,31,-2,-4,-2,1,-3
3975,-1,-4,-1,-2,-3,-16,2,-3
3976,-1,-5,-33,-2,-3,-30,1,-4
3977,-1,-5,-63,-3,-2,-41,1,-4
3978,-2,-4,-89,-3,-3,-50,-1,-3
3979,-3,-3,-108,-3,-3,-56,-2,-3
3980,-3,-2,-122,-3,-3,-60,-2,-2
3981,-2,-1,-129,-2,-3,-60,-1,-2
3982,0,-1,-128,-1,-2,-57,0,-1
3983,2,0,-120,-1,-2,-52,1,-2
3984,3,1,-103,0,0,-43,1,-2
3985,4,2,-83,1,1,-32,1,-2
3986,5,3,-62,2,2,-21,1,-2
3987,5,4,-42,3,3,-12,1,-2
3988,5,4,-26,4,4,-5,1,-1
3989,4,5,-12,4,5,1,1,0
3990,3,5,-1,3,5,5,-1,0
3991,2,5,8,2,5,8,-2,1
3992,1,4,15,1,5,11,-3,0
3993,0,4,19,-1,5,12,-3,0
3994,-1,3,21,-1,5,12,-3,0
3995,-2,2,19,-1,5,11,-2,-1
3996,-2,1,14,-1,4,9,-1,-2
3997,-2,-1,9,-1,3,7,0,-3
3998,-3,-3,4,-2,1,6,0,-4
3999,-3,-4,2,-3,0,7,-1,-5
4000,-3,-6,1,-4,-1,8,-1,-6
4001,-2,-7,0,-5,-1,9,-1,-6
4002,-1,-7,-2,-5,0,10,-2,-6
4003,-1,-7,-3,-5,0,12,-1,-5
4004,0,-6,-1,-5,1,15,-1,-5
4005,1,-4,2,-5,2,19,-1,-4
4006,1,-2,3,-4,2,22,0,-4
4007,3,0,3,-3,3,25,1,-3
4008,4,2,3,-2,3,26,3,-2
4009,5,3,4,-1,4,26,4,0
4010,5,4,5,0,5,27,5,1
4011,4,5,8,0,6,29,5,1
4012,3,5,11,0,6,31,5,1
4013,2,5,13,-1,6,33,4,1
4014,2,4,12,-1,6,35,3,0
4015,1,4,12,-1,5,37,2,0
4016,1,3,15,-1,4,41,1,0
4017,1,2,19,-1,4,44,0,0
4018,0,2,22,-2,4,47,-1,1
4019,0,1,23,-2,4,48,-1,2
4020,-1,1,23,-2,5,48,-1,2
4021,-1,1,24,-1,5,48,-1,3
4022,-1,0,26,-1,5,48,-1,3
4023,-1,-1,26,-1,3,47,-2,2
4024,-1,-2,26,-1,2,46,-2,1
4025,-2,-4,26,0,1,47,-3,1
4026,-2,-5,27,-1,1,49,-4,0
4027,-1,-7,30,-1,0,51,-4,-1
4028,-1,-8,32,-2,0,54,-4,-1
4029,0,-8,34,-2,0,58,-3,-2
4030,1,-8,36,-2,-1,61,-2,-2
4031,2,-6,39,-1,-1,63,-1,-2
4032,2,-4,41,1,0,65,1,-2
4033,1,-1,44,3,0,67,1,-2
4034,0,2,45,5,0,68,3,-1
4035,-1,4,42,6,0,69,4,-1
4036,-2,6,38,7,0,70,5,0
4037,-2,7,33,7,0,71,5,0
4038,-1,9,27,7,1,72,6,1
4039,0,9,22,8,3,73,6,2
4040,1,10,19,8,5,75,7,2
4041,2,9,19,8,6,77,8,3
4042,3,8,21,8,6,79,8,3
4043,3,8,22,9,7,80,9,3
4044,3,8,24,9,7,82,10,4
4045,3,8,26,9,8,84,10,4
4046,2,8,27,9,8,86,11,4
4047,3,8,28,8,9,87,12,4
4048,3,7,26,8,10,86,12,4
4049,3,6,25,7,10,85,12,3
4050,4,5,24,6,9,84,12,3
4051,4,4,25,6,9,84,12,2
4052,4,3,26,6,8,86,12,2
4053,4,2,28,6,6,87,12,1
4054,4,1,29,6,4,89,11,0
4055,3,-1,30,6,3,90,10,-1
4056,3,-1,30,5,2,91,8,-1
4057,2,-1,32,5,2,93,6,-1
4058,2,-1,34,5,1,94,4,-1
4059,1,-1,37,4,1,96,1,-1
4060,1,-2,40,4,0,99,-2,-2
4061,1,-3,43,3,-1,101,-3,-2
4062,1,-3,45,3,-2,104,-4,-3
4063,2,-3,48,3,-2,107,-4,-4
4064,2,-3,51,3,-2,109,-4,-4
4065,2,-2,54,4,-2,110,-4,-4
4066,2,-2,60,4,-2,112,-4,-3
4067,2,-1,66,4,-2,114,-5,-3
4068,2,1,73,3,-1,118,-5,-3
4069,1,2,80,2,0,122,-5,-2
4070,0,3,86,1,1,127,-5,-1
4071,0,4,92,1,1,131,-5,-1
4072,1,4,101,2,2,135,-4,0
4073,2,4,112,3,2,140,-2,0
4074,3,4,127,5,3,146,1,1
4075,4,4,144,7,3,152,2,1
4076,4,3,163,7,3,160,3,2
4077,4,3,183,7,2,169,2,2
4078,2,2,202,6,2,177,1,2
4079,2,2,218,6,1,183,0,1
4080,1,1,228,6,1,187,0,1
4081,2,1,232,6,2,189,0,1
4082,2,1,230,6,2,189,1,1
4083,2,2,226,6,2,187,1,2
4084,2,3,219,5,2,183,0,2
4085,1,4,212,5,2,179,0,2
4086,1,5,202,5,1,175,1,3
4087,1,6,193,6,1,171,1,4
4088,1,6,185,6,1,166,1,5
4089,1,7,177,5,1,160,2,5
4090,2,7,169,5,0,155,3,4
4091,3,7,162,4,-1,151,4,3
4092,3,8,155,4,-2,149,5,3
4093,3,8,149,5,-3,147,5,2
4094,4,8,142,6,-5,145,6,2
4095,5,8,135,7,-6,142,6,3
4096,6,7,128,8,-6,137,6,3
4097,6,7,120,9,-6,131,8,4
4098,7,5,114,9,-5,126,9,4
4099,7,4,111,10,-5,123,9,5
4100,7,2,109,9,-5,121,9,4
4101,6,1,107,8,-5,119,7,4
4102,5,0,102,7,-5,116,6,3
4103,4,1,95,7,-5,113,5,3
4104,3,1,88,6,-4,110,5,3
4105,2,2,86,5,-4,109,4,3
4106,1,2,90,4,-4,109,4,2
4107,-1,1,96,3,-4,111,2,0
4108,-2,0,99,0,-5,110,0,-2
4109,-3,-2,95,-3,-6,105,-2,-4
4110,-3,-3,81,-4,-7,95,-4,-5
4111,-3,-3,61,-5,-7,84,-6,-5
4112,-3,-3,41,-5,-7,73,-7,-4
4113,-3,-3,26,-4,-6,66,-7,-2
4114,-4,-2,15,-4,-5,62,-7,-1
4115,-4,-1,7,-4,-5,57,-7,0
4116,-5,0,1,-4,-5,52,-6,0
4117,-6,0,-5,-4,-6,48,-6,-1
4118,-6,1,-10,-4,-6,45,-5,-2
4119,-5,0,-16,-4,-6,42,-3,-2
4120,-4,0,-20,-4,-6,39,-2,-2
4121,-3,-1,-25,-3,-6,36,0,-1
4122,-1,-1,-29,-2,-5,33,2,-1
4123,1,-1,-31,-1,-5,28,4,-1
4124,2,-2,-34,1,-4,23,6,-1
4125,2,-2,-36,3,-4,18,7,-1
4126,2,-2,-39,3,-5,14,7,-1
4127,1,-2,-40,3,-5,12,8,-1
4128,0,-2,-39,3,-6,10,8,-3
4129,0,-3,-37,2,-6,8,7,-4
4130,-1,-4,-33,1,-6,8,6,-6
4131,-1,-5,-30,1,-7,8,5,-7
4132,-1,-6,-27,0,-7,8,3,-7
4133,0,-7,-25,1,-8,8,2,-7
4134,0,-7,-23,2,-8,8,2,-6
4135,0,-5,-21,3,-8,8,2,-5
4136,-1,-4,-17,3,-7,7,2,-4
4137,-2,-2,-12,3,-6,7,1,-3
4138,-2,-1,-7,2,-5,6,-1,-2
4139,-3,1,-2,1,-4,7,-2,-1
4140,-3,2,1,1,-4,7,-2,0
4141,-2,3,2,0,-3,8,-3,2
4142,-2,4,-1,-1,-3,8,-4,3
4143,-2,4,-4,-2,-3,7,-4,4
4144,-2,4,-8,-4,-4,5,-5,4
4145,-2,3,-12,-5,-4,1,-4,3
4146,-2,2,-16,-5,-5,-3,-2,1
4147,-3,0,-19,-4,-6,-7,0,0
4148,-3,-2,-22,-4,-7,-10,1,-2
4149,-4,-3,-25,-4,-7,-13,2,-2
4150,-4,-4,-29,-5,-7,-16,1,-2
4151,-4,-5,-35,-6,-7,-19,0,-2
4152,-3,-6,-42,-6,-7,-23,-1,-3
4153,-2,-7,-50,-6,-6,-26,-2,-3
4154,-1,-8,-59,-6,-6,-30,-2,-3
4155,-1,-9,-69,-5,-5,-34,-2,-4
4156,-1,-9,-79,-5,-5,-38,-3,-4
4157,-2,-8,-90,-5,-4,-43,-5,-4
4158,-3,-7,-100,-6,-4,-48,-6,-4
4159,-4,-5,-110,-6,-3,-52,-7,-4
4160,-4,-3,-119,-6,-3,-54,-7,-3
4161,-4,-1,-127,-6,-2,-54,-7,-2
4162,-4,1,-135,-5,-2,-55,-5,-2
4163,-2,2,-147,-4,-1,-56,-3,-1
4164,-1,3,-160,-3,-1,-60,-1,0
4165,-1,3,-169,-2,-1,-62,1,1
4166,-1,2,-158,-2,-1,-55,2,2
4167,-1,2,-116,-2,-1,-35,2,2
4168,-3,2,-55,-3,-1,-5,2,3
4169,-4,1,6,-4,0,26,1,3
4170,-5,1,48,-5,1,50,-1,3
4171,-6,1,56,-5,2,61,-3,4
4172,-7,1,31,-6,2,58,-4,4
4173,-8,0,-9,-6,2,47,-4,3
4174,-8,1,-41,-6,1,37,-4,3
4175,-9,1,-53,-6,0,33,-4,2
4176,-9,1,-51,-5,-1,34,-4,1
4177,-9,1,-47,-4,-1,34,-4,0
4178,-8,1,-50,-4,-2,30,-4,0
4179,-7,1,-58,-3,-2,25,-3,-1
4180,-6,1,-70,-3,-2,17,-2,-1
4181,-6,1,-87,-3,-2,7,-2,-1
4182,-5,0,-107,-3,-1,-3,-1,0
4183,-3,-1,-126,-3,-1,-13,-1,0
4184,-2,-2,-140,-4,1,-20,-2,1
4185,0,-3,-151,-4,1,-25,-2,1
4186,2,-3,-161,-3,3,-30,-2,1
4187,4,-3,-175,-2,4,-36,-1,2
4188,5,-2,-193,-1,5,-43,1,2
4189,5,0,-215,-1,5,-52,2,2
4190,4,2,-242,-1,4,-64,3,2
4191,4,3,-271,-1,3,-78,3,2
4192,4,3,-295,-1,2,-91,3,2
4193,3,3,-311,0,2,-98,3,3
4194,3,3,-312,1,1,-98,3,4
4195,2,3,-298,1,1,-89,3,5
4196,2,3,-266,2,2,-69,3,5
4197,2,2,-220,2,2,-41,3,6
4198,2,1,-169,3,3,-9,3,6
4199,2,-1,-123,3,3,21,3,6
4200,1,-3,-85,4,2,44,3,5
4201,1,-4,-57,4,1,60,3,3
4202,0,-5,-36,4,1,70,3,1
4203,0,-6,-20,3,0,75,2,-1
4204,1,-7,-7,3,-1,77,2,-2
4205,2,-7,3,3,-1,77,1,-2
4206,3,-7,11,3,-1,76,2,-2
4207,3,-7,17,4,0,74,2,-1
4208,4,-5,22,5,0,72,4,1
4209,4,-4,25,7,0,70,5,2
4210,5,-3,27,7,0,66,6,2
4211,7,-2,30,8,1,60,7,2
4212,8,-2,33,9,1,52,7,1
4213,8,-2,36,8,2,43,7,1
4214,8,-2,38,7,2,36,7,0
4215,7,-2,38,6,3,32,6,-1
4216,6,-2,37,6,2,32,6,-1
4217,6,-1,38,5,2,33,6,-1
4218,5,0,39,5,1,36,6,0
4219,5,1,41,5,0,37,7,1
4220,5,3,44,5,0,39,7,2
4221,5,5,46,5,0,40,7,3
4222,5,6,47,5,1,41,8,4
4223,6,6,47,5,2,42,8,6
4224,6,5,46,6,2,41,7,7
4225,7,5,46,8,2,41,7,8
4226,7,4,46,9,2,39,6,9
4227,7,2,45,9,2,35,5,9
4228,6,1,45,8,1,31,4,8
4229,5,-1,45,7,0,27,4,6
4230,3,-2,45,5,-1,24,3,5
4231,1,-3,43,4,-2,22,2,3
4232,0,-3,40,3,-2,19,1,2
4233,0,-4,38,2,-3,17,1,1
4234,1,-4,37,1,-4,15,2,1
4235,2,-4,38,1,-6,14,2,0
4236,3,-4,40,1,-7,15,3,0
4237,4,-3,43,2,-8,18,4,1
4238,4,-2,45,3,-8,20,5,1
4239,4,-1,45,3,-8,20,4,1
4240,4,-1,43,2,-7,19,4,1
4241,4,-1,41,2,-7,17,4,1
4242,4,-1,37,1,-7,15,4,-1
4243,4,-1,34,-1,-7,15,3,-2
4244,3,-2,31,-2,-6,16,2,-3
4245,2,-2,26,-4,-6,16,2,-3
4246,2,-3,20,-5,-5,15,1,-3
4247,1,-3,16,-6,-4,12,1,-3
4248,1,-3,14,-6,-4,10,1,-2
4249,1,-3,13,-6,-3,9,2,-2
4250,1,-3,15,-5,-3,10,2,-2
4251,0,-2,16,-4,-3,10,2,-2
4252,-1,-2,15,-4,-3,8,2,-2
4253,-2,-2,13,-3,-3,6,1,-2
4254,-3,-3,12,-3,-3,3,0,-3
4255,-2,-4,12,-3,-4,0,0,-3
4256,-1,-5,13,-3,-4,-2,-1,-3
4257,0,-6,13,-3,-3,-2,0,-3
4258,1,-6,12,-3,-3,1,0,-3
4259,2,-5,10,-3,-3,9,0,-2
4260,2,-4,10,-3,-4,20,-1,-2
4261,2,-2,12,-3,-5,32,-1,-2
4262,1,-1,14,-4,-5,43,-2,-3
4263,1,0,14,-4,-5,51,-3,-3
4264,1,1,11,-5,-5,55,-3,-3
4265,1,3,7,-4,-4,57,-3,-3
4266,0,5,2,-4,-4,58,-3,-3
4267,-1,7,-2,-2,-3,61,-3,-3
4268,-2,10,-4,-1,-3,63,-2,-2
4269,-3,13,-3,-1,-3,66,-2,-2
4270,-4,14,0,-1,-2,68,-2,-1
4271,-5,15,4,-1,-2,71,-3,-1
4272,-5,14,7,-1,-1,71,-2,0
4273,-5,13,8,-1,-1,71,-2,0
4274,-4,11,9,-1,-1,69,-2,1
4275,-3,10,11,-1,-1,65,-1,1
4276,-3,9,13,-2,-2,59,-1,1
4277,-4,8,15,-2,-2,49,-1,1
4278,-5,7,16,-3,-3,36,-1,-1
4279,-5,5,14,-4,-3,20,-2,-2
4280,-5,3,10,-4,-4,4,-2,-3
4281,-4,2,7,-4,-4,-10,-2,-4
4282,-4,1,4,-4,-4,-23,-1,-4
4283,-3,0,1,-3,-4,-35,-1,-4
4284,-3,0,-2,-3,-3,-48,-1,-4
4285,-2,1,-4,-3,-3,-61,0,-4
4286,-1,2,-7,-2,-2,-73,1,-3
4287,1,3,-9,0,-2,-81,3,-2
4288,2,4,-10,2,-1,-83,4,0
4289,3,6,-9,4,-1,-81,6,1
4290,4,7,-7,5,-1,-77,7,2
4291,4,8,-2,6,-1,-73,7,3
4292,4,9,2,6,0,-69,8,3
4293,4,9,6,5,0,-67,7,4
4294,3,9,7,4,1,-65,7,3
4295,2,9,6,3,1,-64,6,3
4296,0,9,5,1,2,-63,5,2
4297,-1,8,6,-1,2,-61,4,2
4298,-2,7,8,-3,2,-59,3,1
4299,-3,5,10,-5,2,-57,1,-1
4300,-3,4,12,-7,2,-56,0,-2
4301,-3,2,13,-8,3,-55,-1,-4
4302,-3,1,13,-8,3,-55,-2,-5
4303,-3,1,13,-9,3,-54,-2,-6
4304,-2,0,12,-8,4,-55,-2,-6
4305,-2,0,11,-7,4,-57,-2,-5
4306,-2,0,9,-6,4,-58,-1,-4
4307,-2,0,9,-5,4,-60,-1,-3
4308,-2,-1,9,-4,4,-62,0,-2
4309,-2,-1,7,-3,4,-63,0,-2
4310,-2,-2,5,-2,4,-63,1,-2
4311,-2,-1,2,-2,4,-64,1,-2
4312,-1,0,0,-1,5,-65,2,-2
4313,0,1,-1,-1,5,-65,2,-2
4314,1,2,1,0,6,-63,3,-2
4315,1,3,3,0,6,-58,3,-2
4316,2,5,5,1,6,-54,4,-2
4317,3,6,5,1,5,-49,4,-1
4318,4,8,4,3,5,-46,4,0
4319,5,9,3,4,4,-43,4,1
4320,7,10,3,5,4,-42,5,3
4321,8,10,4,7,5,-41,5,4
4322,8,9,7,7,5,-41,5,4
4323,8,7,12,7,5,-38,4,4
4324,8,5,18,6,5,-35,3,3
4325,7,2,21,5,5,-32,2,2
4326,5,0,21,4,5,-29,1,0
4327,4,-2,21,1,4,-28,0,-1
4328,2,-3,21,-1,4,-27,-1,-2
4329,0,-4,20,-3,3,-27,-3,-3
4330,-1,-4,18,-4,2,-30,-4,-4
4331,-1,-4,12,-4,0,-34,-5,-4
4332,-1,-5,5,-4,-1,-40,-5,-5
4333,0,-5,-2,-3,-1,-46,-4,-5
4334,0,-5,-8,-3,-1,-51,-4,-6
4335,1,-5,-10,-3,-1,-54,-3,-5
4336,2,-4,-7,-3,0,-53,-3,-5
4337,2,-3,1,-3,1,-50,-3,-4
4338,2,-1,11,-2,2,-45,-4,-4
4339,3,0,18,-2,3,-40,-4,-3
4340,3,2,20,-2,3,-38,-3,-2
4341,3,4,17,-1,3,-37,-3,-1
4342,2,5,11,0,2,-37,-2,0
4343,2,7,6,1,2,-37,-1,1
4344,0,8,4,1,2,-36,-1,1
4345,-1,9,5,1,2,-33,-1,1
4346,-2,9,6,1,3,-30,-1,0
4347,-3,8,8,1,3,-27,-1,0
4348,-4,7,11,0,3,-23,-2,0
4349,-4,6,13,-1,3,-19,-4,0
4350,-4,5,15,-1,2,-16,-4,0
4351,-3,4,16,-1,2,-13,-5,0
4352,-3,3,17,0,1,-12,-4,0
4353,-3,2,16,0,1,-10,-4,-1
4354,-3,1,14,-1,1,-11,-3,-2
4355,-4,0,12,-1,1,-12,-3,-2
4356,-4,-2,11,-3,1,-14,-3,-3
4357,-4,-4,11,-4,1,-16,-3,-4
4358,-4,-5,11,-4,1,-18,-3,-4
4359,-3,-6,11,-4,1,-20,-2,-4
4360,-3,-7,11,-3,2,-23,-1,-4
4361,-2,-6,11,-1,2,-25,1,-4
4362,-1,-6,9,0,3,-28,3,-4
4363,1,-4,7,2,3,-29,5,-5
4364,1,-3,2,2,3,-29,5,-4
4365,2,-1,-4,3,4,-28,5,-4
4366,3,0,-11,3,4,-28,5,-4
4367,3,2,-19,4,4,-28,6,-3
4368,4,3,-25,5,4,-29,7,-3
4369,4,4,-28,6,4,-30,8,-3
4370,4,5,-29,7,4,-29,10,-3
4371,3,6,-28,7,4,-27,11,-3
4372,3,6,-27,7,4,-25,12,-2
4373,2,5,-25,6,4,-21,12,-2
4374,2,5,-24,5,5,-17,11,-2
4375,2,3,-22,5,4,-12,10,-2
4376,2,2,-19,5,4,-7,9,-2
4377,3,0,-16,5,4,-4,8,-1
4378,3,-1,-13,6,4,-2,7,-1
4379,3,-2,-10,6,4,-2,7,0
4380,3,-2,-8,6,4,-3,6,1
4381,2,-2,-8,5,4,-6,6,1
4382,2,-2,-10,5,4,-9,5,1
4383,1,-2,-11,4,4,-12,4,1
4384,2,-2,-11,4,5,-14,4,1
4385,2,-2,-12,4,5,-16,4,1
4386,3,-2,-12,4,6,-18,4,1
4387,4,0,-13,5,6,-18,3,2
4388,4,1,-14,5,6,-17,3,3
4389,5,2,-15,5,6,-15,4,4
4390,6,2,-17,5,7,-14,4,4
4391,6,2,-20,4,8,-14,4,3
4392,6,2,-22,4,9,-17,4,2
4393,6,1,-23,3,10,-20,5,1
4394,6,-1,-25,2,10,-21,5,-1
4395,5,-2,-28,1,9,-21,5,-1
4396,4,-3,-34,1,7,-22,5,-1
4397,2,-3,-40,1,6,-23,4,-1
4398,0,-3,-47,1,5,-25,4,-1
4399,-2,-1,-50,0,5,-26,3,-1
4400,-5,0,-52,-1,5,-28,1,0
4401,-7,1,-52,-2,5,-30,-2,0
4402,-8,3,-50,-3,5,-30,-4,1
4403,-9,4,-45,-4,4,-30,-6,1
4404,-9,5,-37,-4,4,-29,-6,1
4405,-10,5,-27,-5,4,-29,-6,2
4406,-10,6,-19,-4,3,-29,-6,2
4407,-10,5,-14,-4,3,-31,-5,1
4408,-10,4,-15,-4,2,-34,-4,0
4409,-9,2,-20,-3,1,-39,-3,-2
4410,-7,1,-25,-3,0,-44,-2,-3
4411,-6,0,-30,-4,-1,-47,-1,-4
4412,-5,0,-33,-4,-1,-48,1,-4
4413,-4,0,-36,-4,-1,-48,2,-3
4414,-3,1,-40,-3,-1,-48,2,-3
4415,-2,1,-43,-3,-1,-49,3,-2
4416,-1,2,-46,-2,-1,-50,2,-2
4417,-1,2,-49,-2,-1,-52,2,-2
4418,-1,1,-50,-2,-2,-53,1,-2
4419,-2,0,-53,-2,-2,-53,-1,-3
4420,-2,-1,-59,-2,-2,-55,-1,-4
4421,-2,-2,-68,-2,-2,-57,-1,-4
4422,-1,-2,-81,-1,-2,-62,0,-4
4423,-1,-1,-98,-1,-2,-66,2,-4
4424,0,-1,-117,0,-2,-69,3,-3
4425,0,0,-137,1,-1,-69,3,-2
4426,0,0,-156,1,-1,-67,3,-1
4427,0,-1,-173,1,-1,-65,3,-1
4428,0,-1,-188,0,-1,-63,2,-1
4429,-1,-2,-200,0,-1,-64,1,-2
4430,-2,-3,-211,-1,-1,-67,-1,-2
4431,-3,-4,-225,-1,-1,-72,-2,-3
4432,-3,-4,-241,-1,-1,-79,-3,-4
4433,-4,-5,-260,-2,-2,-86,-3,-5
4434,-5,-6,-275,-3,-2,-93,-3,-5
4435,-6,-7,-285,-4,-3,-99,-3,-5
4436,-7,-7,-290,-4,-3,-104,-3,-5
4437,-8,-7,-292,-4,-3,-107,-2,-4
4438,-8,-6,-291,-3,-2,-110,-3,-3
4439,-8,-5,-289,-2,-2,-110,-3,-2
4440,-8,-3,-284,-1,-1,-109,-4,-2
4441,-7,-3,-277,-1,0,-106,-5,-1
4442,-6,-3,-270,-1,0,-102,-5,-1
4443,-6,-3,-263,-1,0,-98,-5,-2
4444,-5,-3,-257,-2,0,-93,-5,-2
4445,-5,-3,-252,-2,0,-89,-4,-2
4446,-4,-3,-247,-3,-1,-84,-4,-2
4447,-3,-3,-245,-3,-1,-80,-4,-2
4448,-3,-3,-245,-3,-2,-76,-4,-1
4449,-3,-3,-245,-3,-2,-74,-4,0
4450,-3,-2,-245,-2,-2,-71,-4,1
4451,-4,-1,-242,-2,-2,-67,-4,2
4452,-4,0,-236,-2,-1,-62,-4,2
4453,-5,1,-229,-2,-1,-57,-4,2
4454,-5,1,-224,-2,0,-53,-4,2
4455,-5,0,-219,-2,0,-50,-5,1
4456,-5,0,-212,-2,0,-45,-5,1
4457,-5,0,-203,-2,0,-40,-6,1
4458,-5,1,-196,-2,1,-37,-5,2
4459,-5,1,-192,-1,1,-35,-5,3
4460,-6,2,-191,0,1,-36,-5,4
4461,-6,2,-190,1,0,-38,-4,4
4462,-7,1,-189,1,-1,-41,-4,4
4463,-6,1,-186,1,-1,-45,-4,3
4464,-6,0,-184,1,-2,-48,-4,1
4465,-4,0,-182,0,-3,-51,-4,0
4466,-3,-1,-179,0,-3,-53,-4,-1
4467,-3,0,-174,-1,-3,-52,-5,-1
4468,-2,1,-170,-1,-2,-49,-4,-1
4469,-2,2,-165,-1,-1,-45,-4,0
4470,-1,3,-160,-1,0,-41,-4,1
4471,-1,3,-156,-1,1,-39,-4,2
4472,-1,3,-152,-1,2,-39,-4,2
4473,-1,3,-148,-1,1,-40,-4,1
4474,-1,2,-145,-1,1,-40,-3,1
4475,-1,2,-142,-1,0,-40,-1,1
4476,-1,2,-140,0,-1,-38,0,1
4477,-1,3,-138,1,-1,-36,1,0
4478,-1,3,-134,2,-2,-33,1,0
4479,-1,3,-127,2,-2,-30,1,0
4480,-2,3,-119,2,-2,-27,1,-1
4481,-3,2,-110,1,-2,-24,0,-1
4482,-4,1,-100,0,-2,-21,-1,-1
