Time,F3 - C3,C3 - P3,P3 - O1,F4 - C4,C4 - P4,P4 - O2,FZ - CZ,CZ - PZ
1,-6,12,40,2,17,-47,3,11
2,-6,10,46,1,18,-46,2,9
3,-8,8,49,-1,19,-44,0,8
4,-8,6,50,-1,20,-43,-1,6
5,-9,6,49,-1,21,-43,-1,6
6,-8,5,46,0,21,-45,1,4
7,-6,5,44,1,21,-46,3,2
8,-5,4,43,2,21,-46,7,-1
9,-4,3,42,2,21,-43,10,-3
10,-3,3,42,1,21,-39,12,-5
11,-3,2,40,1,20,-36,13,-5
12,-3,1,39,1,19,-36,13,-5
13,-3,0,38,1,17,-36,11,-4
14,-4,-1,40,2,15,-38,10,-3
15,-5,-2,44,2,13,-42,9,-4
16,-5,-2,48,2,13,-47,8,-4
17,-6,-2,54,2,13,-49,7,-2
18,-6,-2,59,2,15,-46,7,0
19,-5,-2,64,2,17,-41,6,2
20,-4,-2,66,3,20,-36,6,5
21,-4,-2,65,4,20,-32,6,6
22,-4,-1,64,4,20,-32,6,6
23,-5,0,61,4,19,-35,5,6
24,-5,1,59,3,18,-39,4,5
25,-6,2,57,3,17,-40,4,4
26,-6,3,54,3,17,-38,4,4
27,-6,3,51,2,18,-34,4,4
28,-7,3,49,1,19,-29,4,3
29,-7,3,47,0,20,-26,3,3
30,-8,3,45,-2,21,-24,2,4
31,-8,3,43,-3,22,-25,1,4
32,-9,4,42,-4,23,-27,0,4
33,-9,3,42,-4,23,-29,-1,3
34,-9,0,43,-5,22,-32,-3,2
35,-10,-3,44,-7,21,-33,-4,-1
36,-11,-5,44,-7,21,-33,-5,-3
37,-11,-7,45,-8,20,-31,-5,-6
38,-11,-9,45,-9,19,-30,-5,-8
39,-11,-11,45,-8,18,-28,-4,-9
40,-10,-12,47,-8,16,-27,-4,-9
41,-9,-13,50,-8,15,-26,-4,-8
42,-9,-13,52,-8,14,-26,-4,-7
43,-9,-12,52,-8,14,-25,-4,-6
44,-9,-9,50,-8,14,-24,-4,-5
45,-8,-7,48,-7,14,-23,-4,-4
46,-8,-4,45,-5,15,-20,-3,-3
47,-7,-2,40,-3,16,-17,-2,-3
48,-7,-1,36,-1,17,-14,0,-2
49,-7,1,33,0,17,-14,0,-1
50,-6,2,31,1,17,-12,1,1
51,-6,3,30,0,17,-11,0,3
52,-5,5,28,0,17,-10,0,5
53,-4,7,28,-1,18,-11,-1,8
54,-4,8,27,-1,18,-12,-1,10
55,-5,10,27,-1,19,-14,-2,13
56,-5,11,28,-1,19,-16,-2,15
57,-6,11,30,-1,18,-16,-2,16
58,-6,10,31,-1,18,-12,-2,16
59,-6,8,31,-1,17,-8,-2,14
60,-6,6,30,-2,16,-5,-3,12
61,-5,5,27,-3,15,-4,-4,9
62,-5,4,24,-3,13,-6,-4,7
63,-3,4,22,-3,12,-10,-5,5
64,-2,4,20,-2,12,-14,-4,4
65,0,4,19,0,13,-15,-2,4
66,1,4,18,3,14,-14,-1,5
67,2,5,16,5,14,-11,0,5
68,2,5,15,5,13,-6,0,5
69,3,4,13,5,12,-1,1,4
70,3,4,11,5,10,1,1,3
71,2,2,10,5,10,1,1,1
72,2,1,12,4,10,-1,1,-2
73,0,-1,15,3,10,-4,1,-3
74,-1,-2,19,2,11,-6,0,-4
75,-1,-3,22,1,11,-6,-1,-4
76,-2,-5,23,1,10,-5,-1,-5
77,-1,-7,23,1,10,-7,-1,-5
78,-1,-7,21,2,10,-10,-1,-5
79,-1,-6,18,2,11,-12,0,-5
80,0,-4,14,2,11,-13,1,-5
81,1,-2,12,1,11,-11,1,-5
82,2,0,12,1,11,-10,1,-4
83,2,1,13,2,11,-10,0,-4
84,2,1,15,1,10,-12,-1,-4
85,1,-1,15,0,8,-17,-2,-6
86,1,-2,15,-1,6,-20,-4,-7
87,1,-3,13,-2,4,-20,-4,-8
88,1,-3,12,-2,4,-17,-3,-7
89,1,-2,11,-1,5,-13,-2,-6
90,1,-1,10,0,6,-12,-1,-4
91,1,1,10,1,7,-12,-1,-3
92,0,2,11,1,6,-14,-1,-2
93,-1,3,11,2,6,-16,-1,-2
94,-1,3,10,2,6,-17,0,-1
95,-3,3,7,3,5,-17,0,-1
96,-4,4,3,3,4,-17,-1,-2
97,-5,4,-2,3,4,-18,-1,-2
98,-5,4,-5,3,3,-19,-2,-3
99,-4,3,-5,3,4,-18,-2,-3
100,-3,3,-4,3,4,-17,-1,-2
101,-1,4,-3,4,4,-15,0,-2
102,0,4,-4,4,3,-13,1,-2
103,0,4,-4,4,2,-11,2,-3
104,0,4,-4,4,1,-11,1,-5
105,0,3,-4,4,0,-14,1,-6
106,0,3,-5,4,1,-17,2,-7
107,0,3,-8,4,3,-16,2,-6
108,0,4,-12,4,4,-10,2,-5
109,0,6,-16,3,5,-5,2,-3
110,0,8,-18,3,5,-2,2,-2
111,0,9,-17,4,4,-2,3,-2
112,0,9,-14,5,3,-5,3,-1
113,0,9,-11,6,2,-9,4,-1
114,1,8,-9,6,2,-11,4,0
115,1,8,-9,7,2,-9,4,0
116,1,8,-8,7,2,-7,4,1
117,1,9,-7,7,2,-4,4,1
118,1,10,-5,6,1,-1,4,0
119,1,11,-3,6,0,2,3,-1
120,1,12,0,6,-1,3,3,0
121,1,12,3,6,-1,5,3,1
122,1,12,5,6,-1,6,3,2
123,1,11,6,6,-2,6,3,2
124,1,10,5,6,-4,5,3,2
125,0,8,5,5,-6,4,2,1
126,0,7,4,5,-6,6,2,1
127,-1,6,3,5,-5,6,2,2
128,-1,6,2,5,-3,5,3,2
129,-1,7,1,5,-2,3,2,2
130,-1,8,3,4,-2,2,1,3
131,-2,9,5,3,-3,4,-1,3
132,-2,9,9,2,-4,7,-2,3
133,-3,8,13,1,-3,10,-3,3
134,-4,7,17,1,-3,12,-3,3
135,-4,5,17,1,-2,13,-3,3
136,-5,3,14,1,-2,12,-3,2
137,-5,1,8,1,-2,9,-3,2
138,-5,0,3,1,-2,5,-3,2
139,-5,-1,1,1,-1,1,-2,3
140,-4,0,1,1,1,-3,-1,3
141,-3,1,2,1,3,-5,-1,4
142,-3,3,2,1,5,-6,0,5
143,-2,6,2,1,6,-6,1,7
144,-2,8,2,2,8,-4,1,8
145,-1,9,3,3,9,-3,2,9
146,-1,9,4,4,10,-2,2,8
147,-1,9,6,4,9,0,2,7
148,0,8,8,4,8,3,2,5
149,1,9,8,4,7,6,3,5
150,1,10,8,5,8,10,3,6
151,1,11,7,5,9,12,4,7
152,1,11,7,4,9,13,4,8
153,2,11,5,4,9,13,3,8
154,2,11,4,3,9,10,4,7
155,3,10,3,2,9,7,4,7
156,3,10,4,2,9,5,4,6
157,3,10,4,2,9,5,4,6
158,3,9,4,3,8,5,4,6
159,3,9,2,3,7,7,4,7
160,3,8,0,3,5,8,4,7
161,3,7,-2,3,3,9,3,6
162,2,7,-3,3,1,9,3,6
163,1,6,-4,3,0,7,3,5
164,1,5,-2,3,0,5,2,4
165,1,4,0,2,0,4,2,3
166,2,3,1,2,0,3,2,2
167,2,3,2,2,0,2,1,1
168,1,3,3,2,1,4,1,1
169,0,3,4,3,1,8,1,0
170,-1,3,5,2,2,13,0,-1
171,-1,2,6,2,2,16,0,-2
172,-1,2,6,2,2,16,0,-3
173,-1,2,6,2,2,15,0,-4
174,0,2,5,2,1,13,-1,-4
175,0,2,2,1,0,11,-1,-4
176,0,2,1,-1,-1,9,-2,-3
177,-1,2,-1,-2,-1,9,-2,-2
178,-1,1,-1,-3,0,9,-2,-2
179,-1,-1,1,-3,1,6,-2,-2
180,-1,-2,3,-3,3,3,-2,-3
181,-2,-3,6,-2,6,1,-2,-3
182,-2,-2,9,-2,8,1,-1,-3
183,-3,0,9,-1,10,1,-1,-2
184,-3,1,6,-1,11,0,0,-1
185,-4,3,1,0,11,-2,0,1
186,-5,5,-5,2,11,-4,0,2
187,-6,6,-8,3,10,-5,1,2
188,-6,8,-9,5,10,-5,1,3
189,-7,10,-7,5,10,-5,2,4
190,-7,10,-6,5,11,-3,3,5
191,-6,10,-6,5,11,1,4,6
192,-7,10,-6,3,11,5,3,6
193,-7,8,-8,3,10,8,2,6
194,-8,7,-10,2,9,10,0,6
195,-9,5,-11,2,8,11,-1,6
196,-10,4,-12,2,7,9,-1,5
197,-9,3,-12,2,7,6,-2,3
198,-9,2,-13,1,6,3,-2,1
199,-8,2,-12,0,6,2,-2,-1
200,-7,1,-12,-1,5,3,-3,-3
201,-7,-1,-12,-2,4,4,-4,-3
202,-6,-2,-13,-3,3,4,-4,-4
203,-5,-3,-13,-3,2,3,-3,-5
204,-5,-3,-12,-3,2,2,-2,-7
205,-4,-2,-10,-3,2,2,-1,-8
206,-4,-1,-8,-3,2,2,-1,-10
207,-4,0,-7,-4,2,3,-1,-11
208,-4,1,-8,-5,1,5,-1,-12
209,-4,1,-11,-5,0,7,-1,-14
210,-3,0,-15,-5,-1,8,-1,-16
211,-2,-1,-18,-5,-1,5,-1,-17
212,-1,-1,-19,-5,-2,1,0,-17
213,1,-1,-19,-5,-1,-2,1,-17
214,1,-1,-17,-5,2,0,1,-16
215,1,1,-15,-5,4,6,2,-14
216,1,2,-13,-4,6,10,2,-12
217,0,3,-11,-4,8,12,3,-9
218,0,4,-8,-3,9,13,3,-7
219,0,3,-5,-4,10,11,3,-6
220,1,3,-3,-4,10,6,3,-4
221,1,3,-1,-5,10,0,3,-4
222,1,2,0,-5,9,-3,2,-4
223,1,1,1,-5,8,-5,2,-3
224,2,0,3,-4,7,-8,2,-3
225,2,-1,5,-4,7,-9,2,-4
226,3,-3,8,-3,7,-6,3,-5
227,2,-4,8,-3,7,0,3,-5
228,1,-4,7,-4,7,3,2,-5
229,0,-4,6,-5,7,2,0,-4
230,-1,-3,6,-5,7,-1,-2,-2
231,-1,-2,8,-6,7,-4,-3,-1
232,-1,-1,13,-6,6,-5,-3,0
233,0,-1,18,-5,6,-4,-2,0
234,0,-2,23,-4,7,-2,-1,-1
235,0,-3,26,-4,8,0,0,-2
236,0,-4,28,-4,10,-1,0,-4
237,-2,-4,29,-5,11,-2,0,-5
238,-3,-4,30,-5,12,-3,-1,-6
239,-4,-3,32,-6,12,-2,-2,-7
240,-5,-3,33,-6,12,1,-4,-6
241,-6,-3,32,-6,12,5,-5,-5
242,-6,-3,30,-7,11,7,-5,-4
243,-5,-4,27,-6,11,7,-5,-2
244,-3,-4,24,-5,11,6,-4,0
245,-2,-5,21,-3,11,6,-2,2
246,-1,-5,19,-1,11,6,-1,2
247,0,-5,17,1,12,4,0,2
248,0,-5,16,2,12,1,1,2
249,1,-5,14,2,13,-2,2,1
250,1,-5,13,1,13,-4,2,-1
251,2,-6,13,1,13,-6,2,-2
252,2,-6,15,-1,12,-7,1,-3
253,2,-6,17,-2,11,-8,1,-3
254,1,-6,19,-3,9,-8,-1,-2
255,1,-5,20,-3,8,-6,-1,-2
256,1,-4,20,-2,7,-4,-1,0
257,2,-3,20,-1,8,-3,0,2
258,3,-3,20,0,10,-1,1,5
259,3,-3,21,1,13,0,1,7
260,3,-2,21,0,14,4,1,8
261,3,0,19,-1,16,8,1,9
262,3,2,17,-3,16,13,0,9
263,3,3,16,-3,16,17,1,9
264,3,4,16,-3,15,16,1,9
265,4,5,16,-2,16,13,2,9
266,4,4,16,-1,16,10,3,9
267,3,3,16,1,16,7,4,8
268,2,2,18,2,16,6,4,6
269,1,1,20,2,15,5,4,4
270,0,0,22,2,14,3,4,3
271,-1,-1,24,2,13,0,3,1
272,-1,-2,25,2,12,-2,3,0
273,-2,-3,25,2,12,-3,2,-1
274,-1,-3,24,2,11,-1,2,-2
275,0,-3,23,2,10,2,2,-2
276,1,-2,21,2,9,4,2,-1
277,2,-2,17,3,7,4,2,1
278,4,0,13,4,6,4,3,4
279,5,2,9,6,5,3,3,7
280,7,4,6,7,5,-1,4,9
281,8,5,7,8,6,-5,5,11
282,8,5,9,9,6,-8,5,12
283,8,4,11,9,7,-11,5,12
284,7,4,12,9,7,-14,5,12
285,6,3,14,8,7,-18,5,11
286,6,3,16,8,8,-21,4,10
287,5,2,17,7,8,-23,4,10
288,4,2,17,7,9,-24,4,10
289,2,2,15,7,10,-25,4,9
290,1,1,13,7,10,-25,4,9
291,-1,0,11,6,10,-24,3,8
292,-1,-2,9,4,8,-24,2,6
293,-1,-4,8,2,7,-25,1,4
294,-1,-6,8,0,6,-28,1,2
295,0,-7,6,-1,6,-31,1,1
296,1,-7,4,-1,5,-34,1,0
297,1,-7,3,-1,5,-37,2,0
298,1,-6,3,0,5,-39,3,1
299,1,-6,5,1,5,-38,3,2
300,1,-7,7,1,6,-34,3,3
301,1,-7,8,0,5,-30,2,4
302,1,-7,8,-1,5,-26,1,5
303,2,-7,7,-1,4,-24,0,6
304,3,-7,7,-1,4,-23,0,6
305,5,-7,7,-2,5,-23,0,6
306,7,-9,9,-1,6,-25,1,4
307,9,-10,10,0,7,-27,3,3
308,10,-11,9,1,8,-29,5,3
309,11,-11,8,2,9,-30,6,3
310,11,-9,6,2,10,-30,6,5
311,11,-6,4,3,11,-29,6,9
312,10,-3,2,4,12,-27,6,12
313,9,0,2,6,12,-26,5,15
314,8,1,3,7,13,-26,5,16
315,8,1,4,7,13,-27,4,17
316,8,1,6,7,14,-29,4,16
317,9,-1,10,7,15,-28,4,14
318,9,-2,15,7,15,-25,4,12
319,10,-3,18,7,14,-21,5,8
320,11,-4,18,7,12,-18,6,5
321,11,-3,16,8,10,-16,7,2
322,11,-4,14,7,8,-17,6,0
323,10,-4,14,6,7,-19,5,0
324,9,-4,15,5,6,-20,4,1
325,8,-4,17,4,6,-20,3,3
326,6,-4,19,3,7,-18,3,6
327,5,-3,20,2,7,-17,2,8
328,4,-2,18,1,6,-14,2,9
329,3,0,16,1,5,-12,2,11
330,3,2,13,2,4,-11,2,12
331,4,4,11,2,5,-10,3,12
332,5,5,10,3,6,-8,3,12
333,5,6,9,3,7,-5,4,12
334,5,6,10,2,8,-3,4,13
335,4,6,11,2,9,-3,3,14
336,2,5,11,2,9,-5,1,14
337,1,4,11,2,9,-9,0,15
338,1,4,10,2,9,-12,-1,14
339,1,3,10,3,9,-16,0,13
340,2,3,9,4,9,-17,1,12
341,2,3,9,4,9,-16,1,10
342,2,3,8,4,10,-13,2,9
343,3,4,7,4,10,-11,2,8
344,3,4,4,3,9,-10,2,6
345,3,5,1,1,8,-9,1,4
346,2,5,0,0,8,-7,1,2
347,2,4,1,-1,7,-6,1,1
348,2,4,1,-1,7,-3,1,-1
349,1,4,2,0,6,0,2,-1
350,1,4,1,0,6,3,1,-2
351,1,5,0,0,5,3,0,-2
352,0,5,-2,-1,6,1,-1,-2
353,-1,5,-3,-1,6,-2,-3,-1
354,-2,4,-2,-2,6,-5,-4,-1
355,-4,2,1,-3,7,-6,-4,0
356,-4,1,4,-2,7,-3,-4,1
357,-5,1,8,-2,8,2,-3,3
358,-5,2,12,-1,8,5,-2,5
359,-5,2,14,0,8,7,-1,6
360,-5,2,15,1,7,8,0,7
361,-4,1,15,1,7,8,1,6
362,-3,0,15,-1,6,7,1,6
363,-3,0,15,-2,6,8,1,6
364,-2,1,17,-3,6,11,0,6
365,-2,1,18,-4,6,10,-1,6
366,-2,1,19,-4,5,6,-1,5
367,-1,1,19,-5,6,0,-2,4
368,1,-1,19,-5,7,-3,-1,3
369,2,-1,19,-4,9,-4,0,3
370,3,-1,18,-4,11,-2,1,4
371,3,-1,15,-4,13,0,1,6
372,3,-1,10,-3,14,1,2,7
373,4,0,5,-3,14,0,2,7
374,5,1,2,-2,13,-2,3,7
375,6,1,2,-1,13,-3,3,6
376,7,1,5,-1,12,-4,3,5
377,7,2,9,0,12,-2,3,3
378,6,2,10,0,12,2,4,2
379,6,1,9,0,12,6,4,0
380,6,0,8,1,12,10,5,-1
381,7,-1,8,1,11,13,6,-1
382,7,-3,10,1,9,13,6,0
383,7,-5,12,1,8,10,6,1
384,6,-6,13,0,8,5,6,1
385,6,-7,14,-1,8,3,4,2
386,5,-8,13,-1,8,5,3,2
387,5,-7,11,-1,8,8,3,3
388,5,-6,8,1,8,11,3,4
389,6,-4,5,2,8,11,3,6
390,6,-3,2,3,8,10,3,6
391,6,-2,0,5,9,9,4,6
392,6,-1,-1,5,10,8,5,6
393,7,-2,0,5,11,9,5,7
394,8,-2,1,5,11,11,5,8
395,8,-2,1,5,11,13,4,10
396,8,-1,1,4,10,16,3,12
397,7,-1,1,3,9,17,2,12
398,6,-1,1,2,9,18,2,11
399,6,-1,1,2,10,19,2,11
400,6,0,2,3,11,18,2,10
401,6,0,4,4,12,15,2,9
402,6,0,4,5,13,13,3,9
403,6,0,3,6,13,14,3,9
404,6,1,2,7,13,15,4,9
405,6,1,2,7,13,15,4,9
406,5,1,3,7,11,14,4,8
407,4,0,2,7,10,14,4,6
408,3,-1,-2,7,7,13,3,4
409,1,-3,-6,7,4,13,2,1
410,1,-4,-6,7,2,12,2,-1
411,2,-3,-1,8,1,13,2,0
412,4,-2,9,10,2,13,4,2
413,7,0,22,12,3,12,6,5
414,9,3,33,13,5,14,7,8
415,11,5,37,14,8,17,8,11
416,12,7,36,15,11,19,9,13
417,12,9,32,16,13,19,10,15
418,12,11,30,17,16,18,10,17
419,12,14,31,18,18,16,11,18
420,12,15,34,17,17,16,11,19
421,10,15,37,16,16,19,10,19
422,9,14,40,14,13,23,8,18
423,6,11,42,12,11,25,7,15
424,5,8,41,10,9,21,6,12
425,3,5,39,8,9,15,5,10
426,3,4,37,8,11,11,5,10
427,2,4,34,9,14,10,6,12
428,2,5,30,11,18,9,6,15
429,2,7,24,11,21,7,7,18
430,2,9,18,11,23,6,7,20
431,1,10,13,10,24,2,6,20
432,-1,10,8,9,22,-1,5,19
433,-2,10,5,7,20,-1,4,16
434,-4,8,3,5,17,5,4,13
435,-6,7,2,3,14,12,3,11
436,-8,4,2,2,11,19,1,8
437,-9,2,2,-1,8,22,-1,5
438,-10,0,3,-2,7,23,-2,3
439,-10,-1,4,-3,8,23,-3,3
440,-10,-2,4,-2,11,25,-3,5
441,-9,-1,2,-1,15,31,-2,8
442,-8,-1,-5,1,19,39,-1,13
443,-7,1,-14,3,22,50,-1,18
444,-7,3,-23,3,24,63,-1,22
445,-7,4,-32,3,24,76,-1,25
446,-8,5,-40,1,23,85,-1,25
447,-8,5,-47,-1,20,92,-2,23
448,-8,5,-52,-3,15,98,-2,19
449,-8,6,-55,-5,10,105,-2,14
450,-7,8,-56,-6,7,109,-2,11
451,-6,9,-54,-6,5,112,-2,8
452,-6,10,-49,-5,6,113,-1,7
453,-6,10,-42,-4,8,114,-1,7
454,-6,10,-36,-3,12,114,0,7
455,-6,9,-31,-3,16,112,0,8
456,-6,8,-26,-3,19,107,0,7
457,-5,7,-24,-2,21,100,0,7
458,-5,6,-23,-2,21,95,0,8
459,-5,6,-23,0,20,96,1,10
460,-4,6,-23,1,18,102,1,12
461,-3,5,-23,1,15,110,2,13
462,-2,4,-21,1,12,118,2,13
463,-2,3,-20,-1,8,124,2,12
464,-2,2,-18,-3,3,124,2,8
465,-3,2,-17,-4,-1,123,1,3
466,-4,4,-16,-5,-5,123,0,-1
467,-4,6,-15,-5,-7,125,0,-5
468,-4,8,-13,-5,-8,128,0,-7
469,-4,10,-13,-5,-9,127,0,-9
470,-4,10,-13,-5,-9,124,-1,-10
471,-5,11,-14,-4,-9,121,-1,-9
472,-6,10,-15,-3,-8,119,-1,-8
473,-7,9,-18,-2,-7,118,-1,-6
474,-7,8,-20,-1,-6,117,-1,-4
475,-8,7,-21,-1,-5,115,-1,-2
476,-8,6,-21,-1,-4,113,-1,0
477,-8,5,-21,-1,-2,111,0,1
478,-8,4,-23,-2,-2,109,0,2
479,-9,4,-25,-3,-2,107,0,2
480,-9,4,-25,-3,-4,106,-1,3
481,-10,5,-24,-4,-6,109,-1,3
482,-10,6,-23,-3,-9,113,-1,4
483,-10,9,-20,-3,-12,118,-1,5
484,-9,11,-17,-3,-14,121,-1,6
485,-8,13,-16,-3,-15,123,-1,7
486,-8,14,-16,-4,-16,121,-1,6
487,-8,14,-15,-5,-16,118,-1,5
488,-8,13,-14,-6,-16,115,-1,3
489,-9,10,-15,-6,-15,113,-1,1
490,-10,8,-15,-7,-15,112,-2,0
491,-11,5,-13,-7,-14,109,-2,-1
492,-12,2,-11,-6,-13,105,-2,-2
493,-12,0,-9,-5,-12,100,-2,-2
494,-12,-2,-8,-4,-12,96,-2,-3
495,-11,-4,-5,-4,-12,94,-2,-4
496,-10,-4,-2,-4,-12,93,-2,-5
497,-10,-4,-1,-3,-13,91,-2,-6
498,-9,-3,0,-2,-14,89,-2,-6
499,-9,-1,2,0,-15,88,-1,-4
500,-9,3,5,1,-16,88,-1,-2
501,-9,5,8,2,-18,89,-1,1
502,-10,7,12,1,-19,88,-1,3
503,-10,6,15,-1,-20,85,-2,2
504,-11,5,15,-3,-21,81,-2,1
505,-11,2,14,-5,-21,77,-2,-2
506,-11,-1,13,-6,-20,74,-2,-5
507,-11,-2,14,-7,-20,72,-2,-7
508,-12,-2,18,-8,-20,70,-1,-9
509,-12,-2,23,-8,-20,68,-1,-9
510,-12,-1,26,-9,-20,65,-1,-10
511,-14,-1,26,-9,-20,60,-1,-10
512,-15,0,25,-9,-20,56,-2,-10
513,-16,1,25,-10,-20,54,-2,-9
514,-17,2,24,-10,-19,54,-3,-9
515,-17,4,24,-10,-19,53,-2,-8
516,-17,5,25,-9,-18,51,-2,-7
517,-15,4,26,-8,-16,48,-1,-6
518,-14,3,27,-6,-14,44,0,-5
519,-13,2,27,-4,-12,40,1,-5
520,-12,2,28,-4,-11,38,2,-5
521,-10,2,30,-3,-11,36,2,-6
522,-9,0,30,-4,-12,33,2,-7
523,-9,-2,30,-5,-13,29,1,-10
524,-9,-5,29,-6,-15,24,0,-12
525,-10,-7,29,-7,-16,20,0,-13
526,-10,-9,29,-8,-17,16,-1,-14
527,-9,-9,30,-7,-17,13,-1,-14
528,-8,-9,31,-6,-17,9,-1,-13
529,-6,-8,32,-5,-16,6,0,-13
530,-5,-7,34,-4,-16,4,1,-13
531,-5,-7,36,-3,-15,2,2,-14
532,-5,-6,36,-4,-13,-2,2,-14
533,-6,-6,36,-5,-11,-7,2,-14
534,-7,-5,35,-6,-9,-12,1,-13
535,-8,-5,33,-7,-7,-17,0,-11
536,-9,-5,33,-8,-5,-19,-1,-9
537,-9,-5,33,-9,-4,-18,-2,-7
538,-8,-6,35,-9,-3,-15,-2,-6
539,-7,-8,37,-9,-3,-14,-2,-6
540,-5,-10,39,-9,-4,-15,-2,-6
541,-5,-13,41,-9,-6,-17,-3,-7
542,-4,-15,41,-9,-7,-18,-3,-7
543,-3,-17,40,-8,-8,-17,-4,-7
544,-2,-17,38,-7,-8,-15,-4,-6
545,0,-16,36,-6,-8,-14,-3,-5
546,2,-13,35,-5,-7,-16,-2,-3
547,3,-11,33,-4,-6,-21,-1,-1
548,5,-9,30,-2,-5,-27,0,0
549,7,-8,26,-1,-5,-32,2,1
550,9,-7,24,0,-6,-35,4,-1
551,11,-8,24,0,-6,-35,6,-3
552,12,-9,26,0,-7,-35,9,-6
553,13,-10,28,0,-8,-34,10,-9
554,12,-11,30,0,-9,-34,11,-12
555,11,-10,30,0,-10,-35,11,-14
556,9,-9,30,0,-11,-36,10,-14
557,7,-6,30,1,-10,-35,9,-13
558,6,-3,31,1,-10,-33,9,-12
559,4,-1,32,2,-9,-29,9,-10
560,3,2,32,2,-8,-26,9,-9
561,2,3,32,2,-7,-26,10,-8
562,1,2,30,2,-7,-29,10,-8
563,0,2,28,3,-8,-32,10,-7
564,0,1,28,3,-9,-33,9,-6
565,0,0,27,3,-11,-33,8,-6
566,1,-2,24,2,-13,-33,7,-7
567,1,-3,21,0,-15,-30,5,-9
568,0,-5,20,-2,-16,-28,4,-12
569,-2,-7,20,-2,-17,-27,3,-13
570,-4,-7,23,-3,-17,-26,3,-14
571,-6,-8,26,-3,-16,-26,2,-14
572,-7,-8,29,-3,-15,-27,3,-15
573,-8,-8,28,-4,-15,-29,3,-15
574,-8,-9,25,-5,-16,-30,3,-16
575,-8,-11,22,-5,-16,-30,3,-17
576,-7,-12,20,-5,-16,-30,4,-17
577,-6,-12,22,-5,-16,-30,4,-17
578,-6,-12,26,-4,-16,-31,4,-16
579,-5,-12,31,-4,-15,-32,4,-15
580,-4,-11,33,-3,-14,-31,4,-14
581,-3,-9,32,-2,-14,-29,5,-14
582,-1,-8,28,-1,-13,-26,6,-13
583,0,-6,25,-1,-13,-23,7,-13
584,1,-5,23,-1,-13,-22,7,-13
585,0,-3,23,-1,-12,-22,7,-13
586,-1,-2,25,-1,-11,-21,7,-13
587,-2,-1,27,-2,-9,-20,6,-13
588,-2,-2,28,-2,-6,-20,6,-15
589,-1,-3,27,-3,-5,-20,6,-17
590,0,-5,25,-3,-4,-21,6,-18
591,1,-7,23,-3,-5,-23,6,-20
592,1,-9,21,-3,-6,-25,6,-20
593,2,-10,20,-2,-7,-26,6,-19
594,2,-10,21,-1,-9,-25,5,-17
595,2,-10,23,-1,-10,-23,4,-16
596,2,-10,24,-1,-10,-19,3,-14
597,3,-8,23,-1,-9,-16,3,-13
598,3,-6,21,0,-8,-13,4,-12
599,4,-5,18,1,-7,-13,5,-11
600,5,-5,14,2,-6,-16,5,-11
601,5,-6,9,2,-5,-20,5,-10
602,4,-7,5,2,-5,-26,4,-10
603,4,-8,1,1,-6,-31,3,-10
604,4,-8,-3,1,-6,-36,3,-10
605,6,-7,-6,1,-7,-39,3,-10
606,6,-7,-6,1,-8,-41,4,-10
607,7,-7,-4,2,-8,-40,4,-9
608,7,-6,-2,3,-8,-38,5,-9
609,7,-6,0,5,-8,-35,5,-9
610,7,-5,2,7,-8,-34,6,-8
611,7,-4,4,8,-8,-32,6,-8
612,8,-4,5,9,-8,-31,6,-7
613,9,-2,5,9,-9,-27,7,-5
614,10,-2,4,9,-10,-23,6,-3
615,10,-1,3,9,-10,-19,6,-2
616,9,-1,2,9,-10,-17,6,0
617,9,-1,2,9,-10,-15,6,1
618,8,-1,3,9,-9,-13,6,2
619,7,-1,5,8,-9,-10,5,3
620,7,-1,6,8,-8,-8,5,3
621,6,0,7,8,-7,-4,5,5
622,6,1,7,9,-7,-2,4,6
623,6,2,7,9,-7,-1,4,8
624,6,3,7,9,-7,-3,4,9
625,6,3,7,9,-8,-8,4,10
626,6,2,8,9,-9,-13,4,9
627,5,1,8,8,-10,-18,4,8
628,4,1,8,8,-10,-22,3,6
629,2,-1,8,8,-10,-27,2,4
630,0,-1,10,8,-10,-29,1,3
631,-2,-2,12,7,-10,-26,0,2
632,-2,-3,13,6,-10,-23,-1,1
633,-1,-4,13,5,-10,-23,-1,1
634,1,-5,13,5,-10,-24,-1,1
635,2,-6,11,6,-10,-25,-1,3
636,3,-7,8,7,-10,-28,0,5
637,3,-8,7,8,-9,-32,1,6
638,3,-8,8,9,-8,-34,2,8
639,3,-7,9,9,-6,-32,3,10
640,3,-5,9,8,-4,-27,4,12
641,3,-3,8,7,-2,-23,4,14
642,3,-1,7,6,-1,-22,4,14
643,4,0,6,6,-2,-23,3,14
644,4,1,5,7,-3,-26,3,12
645,5,1,4,8,-3,-29,3,11
646,6,-1,4,9,-2,-31,3,9
647,7,-2,5,10,0,-31,4,8
648,7,-5,6,9,2,-25,4,7
649,8,-8,9,8,2,-20,4,6
650,8,-11,12,5,-1,-17,4,4
651,8,-13,14,4,-3,-17,4,2
652,7,-15,15,3,-5,-20,3,0
653,7,-15,15,2,-5,-23,3,-1
654,7,-14,14,2,-5,-25,4,-2
655,6,-12,14,2,-4,-28,4,-3
656,6,-11,13,2,-2,-29,4,-3
657,5,-9,13,2,0,-29,4,-3
658,5,-8,11,3,3,-29,3,-1
659,4,-7,10,3,5,-27,3,1
660,4,-6,9,3,7,-24,2,2
661,4,-6,11,3,7,-21,2,3
662,5,-5,15,2,8,-18,2,4
663,5,-4,18,1,7,-15,2,4
664,6,-5,19,-1,5,-13,1,3
665,6,-5,19,-3,3,-13,1,1
666,7,-6,16,-4,0,-14,0,-1
667,6,-8,12,-5,-4,-18,0,-3
668,4,-10,8,-6,-7,-22,-1,-5
669,2,-11,6,-6,-9,-25,-2,-6
670,-1,-11,4,-6,-10,-25,-2,-7
671,-3,-11,3,-6,-11,-24,-2,-7
672,-4,-9,2,-6,-11,-21,-2,-5
673,-5,-7,3,-5,-11,-19,-2,-3
674,-4,-4,6,-5,-9,-20,-2,-1
675,-4,-1,7,-5,-7,-22,-1,1
676,-4,0,7,-4,-3,-24,-1,3
677,-3,1,5,-3,1,-23,0,3
678,-3,1,1,-2,5,-23,1,3
679,-2,0,-1,-1,8,-22,1,2
680,-1,-1,-1,1,9,-23,2,1
681,-1,0,3,2,9,-24,2,1
682,-1,1,7,2,8,-24,2,0
683,-1,2,8,2,7,-22,2,0
684,-1,2,5,2,7,-20,2,-1
685,-2,0,1,1,6,-20,1,-2
686,-2,-2,-3,-1,5,-22,0,-3
687,-2,-4,-3,-2,5,-24,-1,-4
688,-1,-4,-1,-3,6,-25,-2,-4
689,0,-3,1,-3,7,-25,-2,-4
690,1,-2,2,-3,10,-25,-2,-3
691,1,-1,2,-2,13,-24,-1,-1
692,2,0,3,0,17,-24,1,1
693,2,1,3,2,20,-23,2,3
694,3,2,4,4,23,-22,2,6
695,4,1,6,6,25,-20,2,9
696,4,0,8,7,27,-19,2,11
697,4,-2,8,8,28,-19,1,12
698,3,-3,8,8,29,-20,1,12
699,2,-4,9,7,29,-22,1,11
700,2,-4,11,6,28,-23,1,9
701,2,-4,11,5,25,-23,1,7
702,2,-4,10,3,22,-21,1,4
703,3,-4,8,1,19,-20,2,2
704,5,-4,5,0,15,-19,2,0
705,6,-4,2,-2,11,-18,2,-2
706,8,-4,0,-3,7,-14,1,-3
707,9,-4,-1,-4,3,-11,1,-4
708,9,-5,1,-6,-1,-9,0,-5
709,8,-5,4,-6,-4,-10,0,-6
710,6,-5,6,-6,-5,-13,0,-6
711,4,-3,5,-4,-5,-18,1,-5
712,3,-2,4,-2,-3,-22,1,-3
713,2,1,2,-1,-1,-25,1,-1
714,2,2,-1,0,2,-26,1,0
715,2,4,-3,0,3,-28,1,1
716,2,5,-3,-1,5,-31,0,1
717,2,5,-2,-1,5,-32,-1,1
718,2,6,1,-1,5,-31,-1,1
719,2,6,4,-2,4,-28,-1,1
720,2,5,6,-2,2,-24,-1,0
721,3,5,7,-2,1,-21,-1,-2
722,3,3,6,-2,-1,-20,-1,-4
723,4,2,3,-1,-3,-23,0,-6
724,5,0,0,1,-5,-27,0,-7
725,6,-2,-2,3,-6,-30,0,-7
726,6,-2,-3,5,-7,-31,0,-5
727,6,-1,-5,7,-7,-33,1,-3
728,5,1,-6,8,-6,-34,1,-1
729,4,2,-5,9,-4,-37,1,1
730,4,3,-3,9,-2,-39,1,4
731,4,4,1,8,0,-39,1,6
732,3,4,4,8,2,-39,1,8
733,3,3,5,6,2,-39,0,8
734,2,2,4,4,2,-39,-1,8
735,1,0,3,3,1,-38,-1,6
736,1,-3,3,2,-1,-37,-2,5
737,2,-5,4,2,-3,-35,-2,4
738,3,-6,5,2,-6,-32,-1,2
739,5,-7,6,3,-8,-31,0,1
740,5,-7,5,4,-10,-31,1,-1
741,6,-6,4,5,-12,-33,1,-4
742,6,-5,1,5,-12,-36,1,-6
743,6,-4,-1,5,-11,-38,1,-7
744,6,-3,-3,5,-9,-41,1,-7
745,6,-2,-5,5,-6,-42,1,-5
746,7,0,-7,5,-4,-43,1,-2
747,8,1,-10,5,-2,-43,1,0
748,8,1,-14,6,-1,-42,2,2
749,9,1,-18,6,-1,-41,2,3
750,10,-1,-20,7,-2,-40,2,3
751,10,-2,-20,6,-4,-41,1,2
752,10,-4,-18,6,-6,-42,0,1
753,9,-4,-14,5,-7,-43,-1,0
754,8,-5,-10,4,-8,-43,-2,-2
755,7,-6,-6,3,-8,-43,-2,-3
756,7,-8,-4,2,-7,-41,-1,-5
757,7,-8,-3,2,-7,-39,0,-6
758,8,-7,-2,3,-6,-37,1,-6
759,9,-4,-3,4,-6,-37,2,-5
760,10,-2,-4,6,-5,-36,3,-4
761,11,1,-6,7,-5,-36,3,-3
762,11,2,-9,7,-6,-36,2,-3
763,11,2,-11,6,-6,-34,1,-4
764,10,0,-12,5,-7,-30,0,-5
765,9,-1,-12,4,-7,-25,-1,-7
766,7,-2,-11,3,-7,-22,-1,-8
767,6,-3,-10,3,-6,-21,0,-8
768,6,-3,-9,4,-5,-21,1,-6
769,6,-3,-10,5,-4,-23,1,-4
770,6,-3,-11,5,-4,-25,2,-2
771,5,-3,-12,6,-4,-27,2,0
772,5,-3,-11,6,-4,-27,1,3
773,4,-3,-7,5,-4,-26,0,5
774,2,-3,-3,4,-3,-25,-2,6
775,0,-2,-2,2,-3,-26,-4,6
776,-1,-2,-3,1,-2,-28,-5,6
777,-1,-3,-5,1,-1,-32,-5,5
778,0,-4,-8,1,0,-36,-5,4
779,1,-4,-10,2,1,-40,-5,3
780,2,-5,-8,2,2,-44,-4,2
781,3,-4,-6,3,4,-47,-4,2
782,3,-4,-4,3,6,-48,-3,2
783,4,-3,-6,2,7,-46,-3,3
784,4,-1,-9,1,8,-43,-3,5
785,4,1,-12,1,9,-41,-2,7
786,4,2,-13,1,9,-39,-2,8
787,4,3,-13,2,9,-38,-1,8
788,4,3,-11,2,8,-36,0,8
789,4,3,-9,3,8,-34,2,7
790,5,2,-7,4,8,-32,3,6
791,5,3,-7,5,8,-30,5,5
792,5,4,-6,5,9,-30,5,5
793,4,4,-5,4,9,-32,5,4
794,3,5,-5,2,10,-35,3,4
795,2,5,-5,0,11,-38,1,3
796,2,5,-6,-2,10,-40,-2,3
797,2,4,-7,-4,10,-40,-3,3
798,2,4,-9,-5,9,-38,-4,3
799,2,4,-11,-5,9,-35,-5,3
800,3,4,-13,-4,9,-31,-4,3
801,4,5,-17,-3,7,-26,-3,3
802,5,6,-20,-3,6,-24,-1,2
803,6,7,-24,0,5,-28,1,2
804,7,7,-28,3,6,-37,3,1
805,8,7,-30,5,7,-45,4,1
806,9,7,-29,7,8,-49,5,1
807,9,6,-26,7,9,-49,4,2
808,9,6,-22,5,9,-43,3,2
809,9,6,-20,3,10,-35,2,3
810,7,6,-20,0,10,-31,0,3
811,6,5,-22,0,11,-34,-1,2
812,6,3,-25,1,11,-41,-1,1
813,5,1,-28,3,10,-45,-1,0
814,5,0,-27,4,9,-42,-1,1
815,6,-1,-24,4,8,-36,-1,1
816,6,-2,-21,3,8,-30,-1,2
817,5,-2,-20,1,8,-26,-2,2
818,5,-2,-21,-1,9,-27,-3,1
819,4,-1,-23,-4,10,-30,-4,0
820,3,-1,-25,-6,9,-32,-6,-1
821,2,0,-26,-7,9,-33,-7,-2
822,2,1,-26,-7,8,-34,-7,-2
823,3,1,-26,-7,7,-36,-6,-1
824,3,1,-25,-7,7,-37,-6,-1
825,3,-1,-23,-6,7,-37,-6,-1
826,2,-3,-21,-6,6,-36,-6,-1
827,1,-4,-20,-5,4,-34,-5,-1
828,2,-4,-19,-3,4,-32,-5,-1
829,4,-4,-20,-1,3,-31,-4,1
830,6,-3,-22,2,4,-30,-2,3
831,8,-2,-23,4,4,-29,-1,5
832,9,-2,-24,5,5,-27,1,7
833,9,-3,-23,6,5,-24,1,8
834,9,-4,-22,6,5,-24,2,8
835,8,-4,-22,6,5,-25,2,7
836,7,-5,-22,6,5,-24,2,7
837,7,-6,-21,5,5,-22,1,6
838,6,-7,-19,5,5,-19,1,5
839,6,-7,-19,4,5,-18,0,5
840,7,-6,-21,4,6,-19,0,4
841,7,-6,-23,4,6,-22,-1,4
842,7,-6,-24,3,7,-25,-1,3
843,7,-6,-26,2,8,-27,-1,3
844,6,-5,-27,2,9,-26,-1,4
845,6,-6,-28,2,10,-24,0,4
846,5,-6,-28,1,10,-21,0,4
847,5,-6,-28,0,11,-19,0,5
848,4,-7,-28,-1,11,-20,-1,5
849,4,-8,-28,-3,10,-21,-3,5
850,3,-10,-30,-5,9,-23,-4,3
851,3,-12,-31,-6,6,-24,-5,2
852,4,-14,-32,-6,4,-25,-5,1
853,4,-16,-32,-6,1,-25,-5,-1
854,3,-17,-31,-6,0,-25,-5,-2
855,2,-17,-29,-6,0,-24,-5,-3
856,2,-17,-27,-7,1,-24,-6,-3
857,1,-17,-26,-9,1,-23,-7,-3
858,1,-17,-26,-10,2,-22,-8,-4
859,2,-18,-25,-9,2,-20,-8,-4
860,2,-19,-23,-8,2,-20,-7,-6
861,2,-19,-22,-7,1,-21,-6,-7
862,1,-19,-21,-6,1,-21,-4,-8
863,1,-18,-19,-5,1,-20,-3,-8
864,0,-17,-17,-4,1,-18,-2,-6
865,-1,-15,-16,-3,1,-16,-2,-3
866,-1,-14,-17,-2,1,-15,-2,0
867,-1,-13,-18,-1,1,-14,-2,2
868,-1,-12,-20,-1,0,-15,-2,1
869,-1,-12,-23,-1,-2,-20,-2,-1
870,1,-13,-25,0,-3,-28,-1,-4
871,1,-13,-27,1,-2,-36,-1,-5
872,2,-13,-27,2,-1,-41,-1,-5
873,2,-12,-26,2,1,-43,-1,-5
874,2,-10,-25,2,3,-41,-2,-3
875,2,-9,-23,0,4,-37,-3,-1
876,2,-7,-21,-2,6,-33,-4,1
877,2,-6,-22,-2,6,-33,-4,2
878,3,-6,-23,-1,7,-35,-3,3
879,4,-7,-24,0,8,-35,-2,3
880,6,-7,-24,1,9,-33,0,4
881,6,-7,-22,1,9,-30,0,4
882,6,-7,-19,1,9,-29,0,5
883,5,-7,-17,1,9,-30,-1,6
884,4,-7,-16,0,9,-31,-3,7
885,3,-8,-16,-1,8,-30,-4,7
886,3,-10,-15,-1,7,-28,-5,7
887,3,-10,-12,-2,6,-25,-6,7
888,4,-11,-9,-1,5,-23,-5,7
889,5,-11,-8,-1,5,-23,-4,5
890,6,-11,-11,1,5,-24,-2,2
891,7,-12,-15,1,5,-25,-1,-1
892,8,-14,-19,1,5,-27,0,-3
893,8,-17,-20,-1,5,-27,-1,-5
894,7,-20,-18,-2,5,-26,-2,-5
895,5,-22,-16,-4,3,-25,-4,-5
896,3,-23,-17,-5,0,-25,-6,-5
897,2,-23,-20,-5,-2,-25,-7,-5
898,2,-23,-24,-5,-4,-25,-7,-6
899,3,-23,-28,-5,-6,-25,-7,-6
900,4,-22,-32,-5,-7,-25,-7,-8
901,4,-22,-35,-4,-8,-26,-6,-9
902,5,-22,-38,-3,-8,-26,-5,-10
903,5,-22,-39,-2,-9,-26,-4,-11
904,4,-20,-36,-1,-8,-26,-3,-11
905,3,-17,-28,0,-6,-25,-3,-9
906,2,-15,-21,-1,-3,-24,-3,-7
907,1,-13,-19,-1,0,-22,-3,-5
908,0,-13,-21,-1,2,-21,-3,-4
909,1,-12,-25,-1,3,-20,-2,-4
910,2,-12,-30,1,2,-20,0,-5
911,3,-11,-33,2,1,-21,2,-6
912,5,-10,-31,2,0,-22,3,-9
913,5,-9,-26,2,-1,-22,4,-11
914,6,-9,-23,2,-2,-20,4,-13
915,7,-10,-20,2,-2,-17,3,-14
916,7,-11,-18,2,-3,-13,2,-16
917,6,-12,-17,2,-4,-11,1,-16
918,4,-13,-19,1,-6,-10,-2,-16
919,3,-13,-20,1,-7,-11,-3,-15
920,2,-13,-20,1,-8,-11,-4,-13
921,2,-12,-17,1,-8,-12,-4,-11
922,3,-10,-14,0,-6,-12,-3,-9
923,4,-9,-13,1,-4,-11,-2,-8
924,6,-7,-13,1,-2,-11,1,-6
925,6,-5,-12,2,-1,-11,2,-5
926,6,-3,-11,3,0,-11,3,-3
927,6,-1,-10,4,1,-10,2,-2
928,4,1,-9,3,0,-10,1,-2
929,2,2,-10,2,-1,-11,-1,-2
930,1,2,-13,0,-2,-11,-3,-3
931,-1,0,-16,-2,-3,-11,-4,-5
932,-2,-1,-18,-3,-5,-12,-5,-6
933,-3,-1,-19,-3,-5,-12,-4,-6
934,-3,0,-20,-1,-4,-11,-2,-6
935,-2,1,-22,0,-3,-12,0,-6
936,0,2,-23,2,-2,-14,2,-6
937,2,2,-23,3,1,-17,3,-7
938,2,2,-21,3,3,-19,3,-6
939,2,0,-18,2,5,-20,2,-6
940,1,-1,-17,0,6,-20,0,-6
941,0,-2,-16,-2,7,-19,-2,-6
942,-1,-2,-16,-4,7,-17,-5,-7
943,-3,-2,-15,-6,6,-14,-7,-8
944,-4,-2,-12,-8,7,-10,-8,-10
945,-5,-1,-9,-9,7,-8,-8,-11
946,-5,0,-7,-8,8,-8,-7,-11
947,-4,1,-8,-5,9,-10,-5,-11
948,-2,1,-10,-2,10,-11,-3,-10
949,0,1,-10,0,10,-11,0,-9
950,1,1,-10,2,10,-11,2,-8
951,3,-1,-9,2,9,-12,3,-7
952,4,-2,-8,1,8,-14,4,-8
953,6,-3,-9,1,7,-17,4,-10
954,6,-4,-10,0,6,-19,3,-12
955,6,-6,-12,-1,5,-21,3,-14
956,5,-6,-12,-1,5,-21,2,-16
957,5,-6,-11,-2,5,-19,2,-15
958,5,-4,-9,-2,6,-18,1,-13
959,5,-3,-7,-1,7,-17,1,-10
960,6,-1,-6,-1,8,-17,2,-8
961,6,-1,-7,-1,9,-15,1,-8
962,6,-1,-8,-1,9,-13,1,-8
963,5,-3,-9,-1,8,-12,-1,-9
964,3,-6,-10,-1,7,-12,-2,-11
965,1,-9,-10,-1,5,-13,-4,-12
966,-1,-12,-10,-3,5,-13,-6,-13
967,-2,-13,-10,-4,5,-13,-7,-13
968,-2,-13,-10,-6,5,-14,-7,-13
969,-1,-11,-9,-7,5,-13,-7,-13
970,1,-8,-8,-8,5,-12,-6,-12
971,2,-4,-7,-8,5,-9,-5,-11
972,3,-1,-6,-8,6,-7,-4,-10
973,4,2,-5,-7,7,-6,-2,-8
974,4,3,-5,-7,8,-5,-2,-5
975,4,4,-6,-7,9,-7,-1,-4
976,4,4,-7,-8,9,-8,-2,-3
977,4,3,-8,-9,9,-7,-3,-4
978,3,1,-9,-11,9,-6,-4,-7
979,3,-1,-8,-12,8,-6,-6,-10
980,2,-4,-7,-14,9,-6,-7,-15
981,1,-7,-5,-14,9,-5,-7,-19
982,1,-10,-3,-13,9,-3,-7,-23
983,1,-12,-2,-12,9,2,-6,-25
984,1,-13,-2,-11,9,6,-6,-25
985,1,-13,-3,-11,8,8,-5,-24
986,0,-13,-5,-11,7,8,-5,-23
987,-1,-11,-5,-12,7,8,-5,-20
988,-2,-9,-5,-14,5,7,-6,-17
989,-4,-8,-5,-15,3,5,-7,-15
990,-4,-7,-6,-15,-1,4,-7,-14
991,-5,-7,-6,-13,-3,3,-7,-13
992,-5,-7,-8,-12,-4,-1,-6,-13
993,-5,-8,-11,-11,-4,-5,-6,-13
994,-5,-8,-13,-11,-3,-7,-5,-13
995,-5,-7,-13,-12,0,-7,-5,-13
996,-5,-6,-13,-12,3,-6,-5,-12
997,-5,-6,-13,-11,5,-6,-4,-11
998,-5,-5,-13,-10,6,-6,-4,-10
999,-4,-3,-11,-8,7,-3,-3,-8
1000,-2,-2,-8,-7,9,3,-2,-7
1001,0,0,-6,-5,11,9,-1,-6
1002,2,2,-3,-4,13,16,1,-5
1003,3,4,-1,-3,15,21,3,-4
1004,4,6,-2,-3,16,24,5,-3
1005,5,6,-4,-2,15,23,6,-3
1006,5,5,-7,-1,13,17,6,-4
1007,5,3,-9,0,11,9,6,-5
1008,5,1,-9,1,11,2,5,-4
1009,4,0,-7,0,12,-2,3,-3
1010,2,-1,-5,-1,13,-1,2,-2
1011,-1,-1,-4,-3,14,2,-1,-2
1012,-3,-1,-4,-5,15,3,-2,-2
1013,-4,-1,-5,-7,14,2,-3,-3
1014,-4,-1,-6,-6,13,1,-3,-4
1015,-3,-1,-5,-4,13,2,-2,-4
1016,-2,1,-2,-3,12,9,-2,-3
1017,-1,2,2,-2,12,19,-1,-1
1018,0,5,5,-2,12,28,-1,1
1019,0,6,4,-2,12,30,-1,1
1020,1,8,3,-2,12,27,-1,1
1021,1,9,1,-1,11,21,-1,2
1022,2,10,0,0,11,16,0,2
1023,3,10,-1,0,10,13,1,3
1024,3,10,0,0,10,13,2,4
1025,3,8,1,0,10,11,2,4
1026,1,6,0,-1,10,9,1,5
1027,0,3,-1,-3,9,7,0,4
1028,-2,1,0,-4,9,6,-1,4
1029,-3,-1,2,-5,8,9,-3,3
1030,-4,-2,4,-6,6,12,-3,1
1031,-4,-2,4,-6,5,16,-4,-1
1032,-4,-2,2,-5,4,19,-3,-3
1033,-3,-2,0,-4,3,22,-2,-4
1034,-3,-2,0,-2,3,22,-1,-4
1035,-3,-1,2,0,4,19,-1,-4
1036,-3,-1,5,2,4,14,0,-3
1037,-3,-1,8,4,6,10,0,-3
1038,-4,-2,10,4,7,11,0,-4
1039,-4,-3,11,3,7,15,-1,-6
1040,-5,-4,9,2,5,19,-2,-9
1041,-6,-6,8,1,2,22,-3,-13
1042,-7,-8,8,-1,-2,21,-4,-17
1043,-8,-9,9,-2,-6,17,-5,-20
1044,-8,-9,9,-2,-9,13,-5,-22
1045,-8,-9,8,-2,-11,11,-5,-22
1046,-8,-8,6,-1,-12,10,-4,-21
1047,-6,-7,5,1,-11,11,-2,-18
1048,-5,-5,5,3,-10,13,-1,-14
1049,-3,-3,5,5,-8,13,0,-10
1050,-1,-2,4,6,-5,13,1,-6
1051,2,-2,3,7,-2,12,2,-3
1052,4,-3,2,8,1,11,3,-1
1053,4,-4,-2,8,2,7,2,-1
1054,4,-6,-5,7,2,3,2,-1
1055,3,-6,-7,6,1,-1,1,-1
1056,1,-6,-6,4,1,-3,0,-1
1057,-1,-6,-4,3,0,-4,-1,-1
1058,-3,-6,-2,2,1,-2,-2,-2
1059,-4,-5,2,2,3,0,-3,-2
1060,-5,-5,6,1,4,2,-4,-2
1061,-5,-5,7,1,5,2,-4,-1
1062,-4,-4,8,2,5,4,-4,0
1063,-3,-4,7,3,5,7,-3,1
1064,-2,-4,8,5,4,10,-2,3
1065,-1,-3,11,7,3,12,-1,4
1066,-2,-4,14,8,2,14,-1,5
1067,-3,-4,16,7,0,15,-1,5
1068,-4,-4,15,6,-1,14,-1,4
1069,-5,-5,13,4,-2,14,-2,4
1070,-5,-5,10,3,-2,17,-3,3
1071,-5,-5,8,2,-3,19,-3,3
1072,-5,-5,8,1,-4,20,-4,3
1073,-3,-5,8,2,-5,19,-4,3
1074,-2,-5,8,3,-5,16,-3,4
1075,0,-5,5,3,-5,13,-3,4
1076,1,-5,0,3,-4,13,-3,4
1077,2,-5,-4,3,-4,13,-2,4
1078,2,-4,-6,4,-3,14,-1,4
1079,2,-2,-6,5,-3,18,0,4
1080,0,-1,-3,7,-2,23,1,5
1081,-2,0,0,7,-2,26,1,5
1082,-4,1,3,6,-2,28,0,5
1083,-6,0,5,5,-2,31,-2,5
1084,-7,0,8,3,-3,33,-3,4
1085,-8,-1,9,2,-5,32,-5,4
1086,-8,-1,10,1,-5,31,-6,3
1087,-7,-1,12,1,-6,32,-6,2
1088,-7,0,13,0,-5,33,-7,2
1089,-5,0,13,0,-5,31,-6,1
1090,-3,0,11,0,-5,26,-6,1
1091,-2,1,7,1,-6,21,-5,1
1092,-1,1,4,2,-7,16,-5,1
1093,-1,3,2,2,-7,14,-5,2
1094,-2,4,1,3,-5,15,-5,3
1095,-2,4,2,3,-3,16,-5,4
1096,-2,4,2,2,-1,18,-5,5
1097,-1,3,4,1,1,19,-5,5
1098,0,2,4,1,2,21,-4,5
1099,1,1,5,1,2,24,-4,4
1100,2,0,6,1,1,30,-4,4
1101,2,-1,8,0,0,35,-4,3
1102,1,-1,9,-1,-1,37,-5,3
1103,-2,-1,9,-2,-1,38,-5,3
1104,-5,-1,10,-2,-2,37,-4,3
1105,-8,1,12,-2,-2,37,-4,3
1106,-11,2,15,-1,-3,36,-3,3
1107,-12,4,18,0,-4,36,-3,3
1108,-13,5,17,1,-5,38,-2,3
1109,-13,5,14,1,-6,40,-3,3
1110,-13,6,12,1,-7,42,-3,3
1111,-12,7,11,1,-7,42,-2,3
1112,-11,8,12,1,-6,42,-2,3
1113,-10,8,14,1,-5,38,-1,3
1114,-10,7,15,2,-5,34,-1,3
1115,-10,6,14,2,-5,32,-1,2
1116,-11,5,12,1,-6,31,-1,0
1117,-12,5,8,1,-7,31,-1,-1
1118,-12,4,5,-1,-8,30,-1,-2
1119,-12,3,4,-1,-8,29,0,-2
1120,-10,3,4,-2,-7,30,0,-2
1121,-9,3,6,-1,-5,31,1,0
1122,-6,3,9,-1,-3,33,1,3
1123,-4,4,11,0,-1,35,1,5
1124,-3,5,12,1,0,36,1,7
1125,-2,5,11,2,0,35,1,8
1126,-2,5,11,2,1,32,1,9
1127,-2,6,11,2,1,30,0,10
1128,-3,7,12,1,2,28,0,12
1129,-3,8,12,0,3,26,-1,13
1130,-3,8,10,-1,4,21,-1,13
1131,-2,8,7,-1,5,15,0,13
1132,-1,8,4,-1,6,10,1,13
1133,1,7,3,-1,6,9,1,13
1134,2,7,5,-1,6,10,2,13
1135,2,7,8,-1,7,12,3,13
1136,3,7,11,-1,8,15,4,12
1137,2,6,13,-1,11,17,4,11
1138,2,5,12,-1,12,15,4,9
1139,1,4,9,-1,13,11,5,7
1140,0,3,7,-2,12,5,4,5
1141,0,2,7,-3,11,0,4,3
1142,0,1,8,-4,10,-3,4,2
1143,1,0,9,-4,9,-2,4,1
1144,1,-1,10,-4,7,1,4,1
1145,2,-2,11,-4,5,3,4,0
1146,2,-2,10,-4,4,5,4,-1
1147,2,-1,9,-5,2,6,3,-1
1148,1,0,9,-5,1,6,2,-1
1149,0,1,9,-6,1,6,2,-1
1150,-1,2,9,-7,1,6,1,0
1151,-2,2,9,-7,1,6,1,0
1152,-3,2,7,-6,1,4,1,0
1153,-3,1,5,-5,1,-1,1,1
1154,-2,1,3,-3,2,-6,1,2
1155,-1,1,4,-2,3,-8,1,3
1156,0,2,4,-1,4,-8,2,5
1157,1,3,2,0,5,-8,2,7
1158,1,4,-1,1,6,-9,3,7
1159,1,5,-3,2,6,-10,3,6
1160,1,5,-5,3,6,-10,4,5
1161,2,5,-7,3,6,-11,4,4
1162,3,5,-9,2,6,-12,4,3
1163,4,4,-9,1,7,-13,3,3
1164,5,4,-9,0,7,-14,3,4
1165,6,4,-9,-1,8,-14,2,7
1166,7,5,-7,0,9,-13,2,9
1167,8,5,-6,0,10,-11,2,11
1168,8,5,-5,1,9,-9,2,12
1169,8,5,-5,0,7,-8,1,13
1170,8,4,-7,-2,6,-8,1,12
1171,7,3,-9,-4,5,-6,0,12
1172,7,1,-10,-6,5,-5,-1,12
1173,6,-1,-8,-8,6,-3,-2,12
1174,6,-3,-5,-9,6,-1,-2,13
1175,6,-4,-3,-10,7,-1,-3,13
1176,6,-4,-2,-11,7,-2,-3,13
1177,6,-4,0,-10,6,-3,-4,13
1178,6,-4,2,-9,6,-1,-3,12
1179,7,-3,3,-7,6,1,-3,12
1180,7,-3,3,-6,6,2,-2,11
1181,7,-3,3,-4,7,0,-1,11
1182,6,-4,3,-3,7,-5,-1,10
1183,5,-4,2,-3,7,-9,-1,8
1184,5,-5,0,-2,7,-12,-1,7
1185,5,-5,-2,-1,5,-12,0,6
1186,6,-5,-2,0,3,-13,1,5
1187,8,-5,-2,1,0,-12,1,4
1188,10,-4,-1,2,-2,-9,2,5
1189,11,-3,0,1,-3,-7,2,7
1190,12,-2,1,1,-3,-5,1,9
1191,12,-2,0,1,-3,-2,1,9
1192,12,-2,-1,1,-4,-1,1,9
1193,11,-2,-1,1,-4,-1,1,7
1194,9,-3,-1,1,-4,-3,0,5
1195,6,-3,-1,0,-4,-4,-1,3
1196,3,-4,1,-1,-4,-4,-2,2
1197,0,-5,1,-2,-4,-5,-4,1
1198,-2,-6,0,-3,-4,-6,-5,0
1199,-4,-7,0,-3,-4,-8,-6,0
1200,-4,-7,-1,-3,-4,-10,-6,0
1201,-3,-7,-3,-2,-4,-12,-6,0
1202,-1,-6,-7,-2,-4,-15,-6,1
1203,0,-5,-11,-1,-4,-16,-5,2
1204,1,-3,-15,0,-4,-16,-3,4
1205,3,-2,-17,2,-4,-16,-2,5
1206,3,0,-17,4,-3,-18,0,7
1207,4,1,-16,5,-2,-19,1,8
1208,5,2,-14,7,-2,-18,1,8
1209,6,1,-13,8,-2,-17,2,8
1210,6,1,-12,10,-2,-13,3,8
1211,7,0,-10,11,-2,-10,3,7
1212,8,-1,-8,11,-2,-7,4,7
1213,9,-1,-7,11,-2,-5,5,7
1214,10,0,-5,11,-2,-6,6,8
1215,10,1,-4,10,-2,-8,6,8
1216,10,2,-4,8,-3,-8,5,8
1217,9,2,-5,8,-3,-8,4,8
1218,7,3,-6,7,-3,-7,3,7
1219,5,2,-6,6,-3,-7,2,5
1220,3,1,-6,6,-3,-4,1,4
1221,2,-1,-5,5,-2,-2,1,2
1222,2,-2,-5,5,-2,0,0,1
1223,3,-3,-5,6,-1,-1,0,1
1224,4,-4,-6,6,-1,-4,1,1
1225,5,-4,-6,7,0,-8,2,2
1226,6,-3,-5,9,1,-12,4,3
1227,7,-2,-4,10,2,-14,5,5
1228,8,0,-4,10,3,-15,6,7
1229,10,0,-4,10,3,-15,6,7
1230,10,-1,-6,10,3,-14,5,7
1231,11,-2,-7,8,3,-14,4,4
1232,10,-3,-7,6,2,-14,3,2
1233,10,-4,-6,5,2,-14,2,-1
1234,10,-6,-4,4,1,-11,2,-2
1235,10,-7,-2,4,1,-7,1,-2
1236,11,-7,-1,3,1,-3,1,-2
1237,12,-8,-1,3,1,1,1,-1
1238,13,-8,-2,4,1,4,1,0
1239,14,-8,-2,4,1,4,2,0
1240,15,-7,-2,4,2,2,3,0
1241,15,-6,-3,3,2,1,3,0
1242,14,-6,-4,1,3,1,3,-1
1243,12,-5,-5,0,4,2,3,-2
1244,9,-5,-7,-2,5,1,2,-2
1245,8,-6,-8,-2,5,-2,2,-2
1246,6,-6,-9,-2,6,-5,2,-2
1247,5,-8,-8,-1,6,-8,2,-2
1248,5,-8,-6,0,5,-9,2,-2
1249,5,-9,-2,1,5,-6,2,-2
1250,5,-9,2,2,6,-3,2,-1
1251,6,-8,5,2,6,-1,1,0
1252,7,-8,6,3,6,-1,1,1
1253,9,-7,5,3,6,0,1,3
1254,9,-7,2,2,6,1,0,3
1255,10,-6,1,1,5,3,0,4
1256,9,-6,-1,1,5,5,0,4
1257,9,-5,-2,1,4,7,0,4
1258,8,-5,-3,1,3,7,1,3
1259,9,-4,-7,1,2,5,1,2
1260,9,-4,-11,1,1,2,1,1
1261,10,-4,-16,0,1,-1,1,-1
1262,10,-3,-19,-1,1,-4,1,-3
1263,10,-2,-20,-1,2,-7,1,-5
1264,10,-1,-19,-1,2,-10,2,-6
1265,10,0,-17,-1,3,-12,3,-7
1266,9,0,-15,0,4,-13,3,-8
1267,7,0,-13,1,5,-12,3,-8
1268,4,-2,-11,1,7,-11,2,-9
1269,1,-3,-9,2,8,-10,1,-10
1270,-1,-5,-8,2,9,-10,-1,-9
1271,-2,-5,-7,2,9,-12,-1,-8
1272,0,-6,-6,2,10,-15,-1,-7
1273,3,-8,-5,2,10,-17,0,-6
1274,5,-9,-6,2,9,-19,0,-6
1275,6,-11,-8,1,7,-20,1,-7
1276,6,-12,-10,1,5,-19,1,-8
1277,4,-11,-11,0,2,-18,1,-9
1278,3,-9,-13,1,0,-15,0,-10
1279,1,-7,-14,1,-1,-12,0,-11
1280,1,-5,-15,2,-2,-10,1,-11
1281,0,-5,-14,3,-1,-9,1,-10
1282,-1,-4,-14,4,-1,-11,1,-10
1283,-1,-3,-15,4,1,-14,1,-10
1284,-1,-2,-15,4,2,-15,1,-9
1285,1,-1,-16,4,4,-14,2,-8
1286,2,1,-18,4,6,-10,2,-7
1287,3,3,-20,4,7,-6,3,-7
1288,4,4,-20,5,7,-1,4,-6
1289,4,5,-19,5,6,2,5,-5
1290,4,5,-16,5,5,2,5,-5
1291,3,5,-14,4,4,1,5,-4
1292,2,4,-13,3,2,-1,4,-4
1293,0,4,-13,2,1,-2,3,-3
1294,-2,4,-14,1,0,-3,3,-2
1295,-3,3,-16,1,0,-4,2,-2
1296,-4,4,-17,0,0,-6,2,-2
1297,-5,4,-18,0,0,-8,1,-2
1298,-5,4,-19,-1,0,-10,1,-3
1299,-5,5,-20,-2,0,-14,1,-4
1300,-6,5,-20,-3,1,-17,0,-5
1301,-5,4,-19,-3,1,-17,-1,-7
1302,-5,3,-17,-3,2,-14,-1,-8
1303,-4,1,-14,-2,2,-10,-1,-10
1304,-3,-2,-11,-2,1,-6,0,-12
1305,-3,-5,-9,-3,-1,-3,0,-15
1306,-3,-7,-6,-5,-3,-2,0,-18
1307,-3,-9,-4,-7,-5,-2,-1,-20
1308,-3,-11,-2,-8,-6,-5,-2,-21
1309,-3,-10,-1,-9,-6,-7,-2,-22
1310,-3,-9,-1,-9,-5,-9,-2,-21
1311,-2,-8,-4,-8,-4,-9,-1,-21
1312,-1,-7,-6,-6,-3,-8,0,-20
1313,0,-7,-8,-5,-2,-7,1,-18
1314,1,-8,-8,-5,0,-5,2,-15
1315,2,-9,-7,-5,2,-3,2,-12
1316,3,-9,-5,-5,4,-1,2,-9
1317,3,-9,-5,-5,6,-2,2,-7
1318,2,-9,-7,-5,6,-3,2,-6
1319,1,-9,-9,-6,5,-3,1,-7
1320,0,-9,-10,-6,3,-3,0,-8
1321,-1,-9,-9,-6,1,-2,-1,-10
1322,-2,-10,-7,-6,0,-1,-1,-13
1323,-1,-10,-5,-5,-1,3,-2,-14
1324,0,-9,-4,-5,-1,6,-1,-14
1325,1,-7,-4,-4,-1,7,-1,-14
1326,1,-6,-4,-3,-2,5,-1,-14
1327,2,-5,-5,-3,-2,2,0,-14
1328,2,-5,-5,-4,-1,-3,0,-15
1329,2,-5,-6,-5,1,-7,0,-15
1330,1,-4,-7,-6,4,-10,-1,-14
1331,1,-3,-9,-6,7,-11,-1,-11
1332,0,-2,-9,-6,9,-10,-1,-9
1333,-1,-1,-9,-5,10,-10,-1,-7
1334,-1,-1,-9,-4,9,-9,0,-6
1335,-2,-1,-10,-3,8,-8,0,-7
1336,-3,-3,-11,-3,6,-6,0,-9
1337,-4,-5,-11,-4,5,-6,0,-11
1338,-5,-6,-13,-5,3,-7,-1,-13
1339,-7,-6,-14,-7,1,-7,-3,-15
1340,-9,-6,-15,-8,-2,-4,-4,-16
1341,-10,-5,-14,-9,-3,3,-5,-16
1342,-11,-5,-13,-10,-4,11,-5,-16
1343,-10,-5,-12,-10,-5,18,-5,-14
1344,-9,-7,-12,-9,-4,17,-5,-13
1345,-7,-8,-14,-8,-4,12,-4,-12
1346,-6,-9,-16,-7,-3,5,-4,-11
1347,-5,-10,-17,-6,-3,-2,-4,-9
1348,-5,-9,-17,-6,-2,-6,-3,-8
1349,-5,-8,-16,-6,-2,-7,-3,-8
1350,-5,-8,-13,-7,-3,-7,-4,-9
1351,-5,-8,-12,-8,-3,-7,-3,-10
1352,-6,-8,-10,-8,-4,-8,-3,-10
1353,-6,-9,-9,-7,-4,-5,-3,-10
1354,-6,-8,-8,-7,-5,1,-3,-8
1355,-5,-7,-8,-6,-6,5,-3,-6
1356,-5,-5,-9,-5,-6,7,-3,-4
1357,-4,-4,-10,-4,-5,7,-3,-2
1358,-4,-4,-11,-3,-4,9,-3,-1
1359,-4,-4,-11,-3,-3,11,-2,0
1360,-4,-5,-9,-3,-3,14,-1,1
1361,-3,-6,-7,-2,-3,17,0,1
1362,-2,-6,-6,-2,-3,17,0,1
1363,-2,-6,-6,-3,-4,14,1,1
1364,-2,-6,-7,-4,-4,10,0,1
1365,-3,-5,-8,-5,-4,6,0,1
1366,-4,-5,-9,-7,-5,5,-1,-1
1367,-6,-6,-10,-8,-5,5,-1,-3
1368,-7,-7,-12,-9,-6,5,-2,-6
1369,-8,-8,-14,-9,-6,4,-2,-8
1370,-9,-7,-14,-8,-6,3,-2,-9
1371,-9,-5,-15,-8,-5,5,-3,-8
1372,-10,-3,-15,-8,-4,6,-3,-7
1373,-10,-1,-16,-8,-3,7,-3,-6
1374,-9,1,-17,-9,-1,7,-4,-5
1375,-9,2,-19,-10,0,6,-4,-5
1376,-8,2,-21,-10,1,6,-4,-6
1377,-8,3,-23,-10,1,5,-3,-6
1378,-7,3,-23,-9,1,5,-3,-6
1379,-6,4,-23,-8,1,4,-2,-4
1380,-5,5,-23,-6,1,4,-1,-2
1381,-4,6,-23,-4,2,3,1,1
1382,-4,8,-23,-3,3,4,1,3
1383,-4,10,-23,-2,4,5,1,4
1384,-3,11,-23,-3,5,7,1,4
1385,-3,11,-23,-3,5,6,1,3
1386,-3,11,-23,-3,5,4,1,0
1387,-3,10,-22,-3,5,0,0,-3
1388,-3,8,-22,-4,4,-4,-1,-6
1389,-3,7,-22,-5,4,-6,-2,-8
1390,-4,6,-21,-5,3,-6,-4,-10
1391,-5,4,-20,-6,2,-4,-5,-10
1392,-5,3,-18,-6,0,0,-6,-10
1393,-6,1,-15,-7,-1,4,-7,-9
1394,-7,-1,-12,-7,-1,8,-7,-9
1395,-8,-2,-11,-7,-1,11,-7,-9
1396,-9,-2,-11,-7,-1,11,-7,-9
1397,-10,-1,-13,-7,0,9,-7,-9
1398,-10,1,-16,-6,0,7,-6,-8
1399,-9,3,-20,-5,1,3,-5,-8
1400,-8,4,-25,-3,2,1,-4,-7
1401,-6,5,-28,-2,3,-1,-3,-6
1402,-5,6,-28,-1,3,1,-1,-5
1403,-4,7,-27,-1,3,3,0,-4
1404,-4,8,-24,-1,1,5,0,-4
1405,-4,9,-21,-1,0,6,1,-4
1406,-4,10,-19,-1,-1,4,1,-5
1407,-3,9,-19,-1,-2,4,2,-7
1408,-2,8,-20,0,-3,8,3,-9
1409,-1,7,-21,0,-5,14,4,-11
1410,1,4,-20,-1,-6,20,4,-13
1411,1,2,-19,-1,-5,23,4,-14
1412,1,0,-18,-2,-5,21,4,-13
1413,1,-1,-18,-1,-3,16,3,-11
1414,1,-1,-17,-1,-1,11,3,-8
1415,0,1,-18,0,1,8,3,-4
1416,-1,3,-19,0,2,7,3,-1
1417,-2,6,-21,0,3,7,3,1
1418,-2,8,-23,0,2,7,3,2
1419,-3,10,-25,-1,1,7,3,2
1420,-3,11,-26,-2,0,8,2,1
1421,-2,12,-26,-3,-2,11,2,0
1422,-2,12,-26,-4,-4,13,2,-1
1423,-2,12,-26,-5,-5,12,2,-1
1424,-1,11,-25,-5,-5,10,2,-2
1425,-1,10,-24,-5,-5,7,2,-3
1426,-1,7,-21,-4,-4,6,2,-3
1427,-1,4,-18,-3,-4,6,2,-4
1428,-1,1,-16,-2,-4,6,2,-5
1429,-1,-2,-13,-2,-4,4,2,-6
1430,-1,-4,-12,-1,-5,1,2,-8
1431,0,-4,-12,-1,-6,-2,2,-9
1432,1,-4,-14,-1,-6,-6,3,-9
1433,1,-2,-16,-1,-7,-7,3,-9
1434,2,-1,-18,-1,-6,-4,3,-8
1435,3,1,-19,-1,-6,0,3,-6
1436,4,2,-20,0,-5,4,3,-4
1437,5,2,-18,0,-5,6,2,-3
1438,4,2,-16,-1,-4,8,2,-3
1439,3,1,-14,-2,-4,8,1,-5
1440,1,-1,-11,-3,-4,8,0,-8
1441,-1,-2,-9,-5,-4,7,-1,-11
1442,-2,-3,-7,-7,-4,9,-1,-13
1443,-3,-3,-4,-8,-3,12,-1,-15
1444,-3,-3,-2,-8,-2,15,0,-16
1445,-3,-3,-1,-8,-1,16,1,-17
1446,-2,-2,-1,-7,0,15,3,-17
1447,0,-1,-1,-5,1,13,4,-17
1448,2,-1,-1,-3,2,11,5,-16
1449,3,0,-2,-1,3,9,6,-13
1450,5,2,-3,1,3,6,7,-10
1451,6,3,-3,2,3,4,7,-8
1452,7,5,-3,2,2,2,7,-6
1453,7,6,-3,2,2,3,7,-6
1454,7,6,-4,2,1,5,8,-7
1455,7,5,-5,2,-1,9,8,-10
1456,7,3,-7,2,-2,15,9,-13
1457,7,1,-8,2,-3,20,9,-17
1458,7,-2,-8,2,-4,21,9,-19
1459,7,-4,-7,2,-6,20,9,-20
1460,7,-6,-4,3,-9,17,9,-21
1461,6,-6,-3,2,-11,13,7,-21
1462,4,-7,-3,1,-13,8,6,-21
1463,2,-8,-4,-1,-14,5,4,-22
1464,-1,-9,-5,-2,-14,3,2,-22
1465,-3,-9,-5,-2,-15,2,1,-21
1466,-4,-9,-5,-3,-14,2,1,-20
1467,-4,-9,-5,-3,-14,2,1,-18
1468,-2,-8,-7,-2,-13,2,2,-16
1469,0,-7,-7,-2,-12,3,3,-14
1470,2,-6,-6,-2,-10,5,3,-12
1471,3,-6,-3,-3,-8,8,3,-11
1472,3,-6,0,-4,-7,9,3,-11
1473,2,-6,0,-5,-7,5,2,-12
1474,-1,-6,-3,-7,-8,-1,2,-15
1475,-3,-5,-7,-7,-9,-3,1,-17
1476,-4,-4,-10,-8,-10,-1,1,-18
1477,-5,-3,-9,-8,-10,6,2,-18
1478,-5,-1,-5,-8,-10,15,2,-15
1479,-5,1,1,-7,-10,22,3,-11
1480,-4,2,6,-6,-10,23,3,-8
1481,-4,3,8,-5,-10,18,3,-5
1482,-4,4,8,-3,-9,13,3,-2
1483,-4,4,9,-2,-8,14,3,-1
1484,-3,2,10,0,-7,19,3,1
1485,-3,0,11,1,-7,22,3,0
1486,-4,-3,12,2,-8,22,2,-2
1487,-5,-5,12,3,-8,20,1,-4
1488,-6,-6,11,3,-9,16,-1,-6
1489,-7,-6,11,3,-9,13,-2,-7
1490,-7,-6,12,3,-9,14,-3,-7
1491,-7,-5,17,2,-9,19,-4,-6
1492,-6,-4,21,0,-8,23,-5,-5
1493,-6,-4,25,-1,-7,26,-5,-4
1494,-6,-4,28,-1,-6,28,-5,-3
1495,-6,-3,29,-2,-5,28,-6,-1
1496,-6,-3,28,-3,-5,28,-6,2
1497,-6,-2,25,-3,-5,29,-6,4
1498,-5,-1,22,-3,-5,29,-6,5
1499,-5,1,18,-2,-4,28,-6,6
1500,-4,2,13,-1,-3,25,-6,6
1501,-3,1,8,1,-2,21,-5,7
1502,-2,1,5,2,-2,18,-5,7
1503,-1,0,3,4,-2,16,-4,7
1504,0,0,3,6,-2,18,-3,8
1505,0,1,6,7,-2,22,-2,8
1506,0,1,8,8,-1,26,-1,8
1507,0,0,8,8,-1,27,-1,8
1508,-1,-1,6,7,-1,25,-1,8
1509,-1,-2,4,7,-2,22,-1,7
1510,-2,-1,2,8,-4,21,-1,7
1511,-2,1,0,8,-4,20,0,7
1512,-2,3,-1,8,-4,21,0,7
1513,-1,5,-2,8,-3,20,1,8
1514,0,7,-3,9,-2,18,2,8
1515,0,8,-5,9,-2,17,2,9
1516,1,8,-6,9,-2,15,3,9
1517,1,8,-7,9,-3,14,2,9
1518,0,7,-8,9,-3,13,2,9
1519,0,7,-9,8,-3,11,1,9
1520,-1,7,-11,7,-3,8,0,8
1521,-1,7,-11,7,-2,4,-1,7
1522,-2,8,-11,7,-1,4,-2,6
1523,-2,9,-10,7,1,6,-2,6
1524,-2,9,-9,7,2,8,-2,6
1525,-2,9,-8,7,3,11,-2,6
1526,-1,9,-9,7,3,12,-3,6
1527,-1,9,-9,7,4,13,-3,7
1528,0,9,-9,7,4,13,-3,7
1529,0,10,-8,6,3,14,-4,8
1530,-1,10,-7,5,2,17,-5,8
1531,-2,10,-7,4,2,20,-7,8
1532,-4,8,-5,2,1,24,-8,7
1533,-6,6,-4,0,0,28,-10,6
1534,-7,3,-4,-1,-1,30,-10,4
1535,-7,1,-7,-2,-2,28,-10,3
1536,-5,0,-11,-2,-3,23,-9,2
1537,-3,1,-14,-2,-4,18,-7,1
1538,-1,2,-17,-1,-4,13,-5,2
1539,0,3,-19,-1,-3,13,-4,3
1540,0,4,-19,-1,-1,15,-3,5
1541,-1,4,-17,-1,1,18,-3,6
1542,-3,3,-14,-2,2,19,-4,5
1543,-5,2,-12,-3,3,18,-5,3
1544,-6,1,-11,-3,3,17,-6,1
1545,-6,-1,-11,-4,3,14,-6,-2
1546,-6,-2,-11,-3,3,9,-6,-3
1547,-6,-3,-13,-2,3,4,-5,-3
1548,-5,-4,-14,-1,3,1,-5,-3
1549,-5,-4,-16,0,2,-1,-5,-2
1550,-4,-5,-17,1,0,-2,-4,-2
1551,-4,-5,-18,1,-2,-2,-4,-2
1552,-3,-5,-19,0,-5,0,-4,-2
1553,-3,-6,-19,-2,-6,1,-5,-2
1554,-4,-6,-19,-4,-7,1,-7,-3
1555,-6,-7,-18,-6,-7,0,-8,-5
1556,-7,-7,-15,-7,-7,1,-10,-7
1557,-9,-7,-12,-8,-7,3,-10,-9
1558,-10,-7,-9,-9,-7,5,-11,-12
1559,-11,-5,-7,-9,-7,6,-11,-14
1560,-11,-4,-5,-8,-8,6,-11,-16
1561,-11,-2,-4,-8,-7,6,-10,-16
1562,-10,-1,-3,-7,-6,5,-10,-16
1563,-8,-1,-2,-6,-6,4,-9,-14
1564,-7,0,-2,-6,-5,2,-8,-13
1565,-5,0,-2,-5,-5,2,-7,-10
1566,-3,0,-3,-4,-4,3,-6,-8
1567,-2,0,-5,-3,-4,3,-4,-6
1568,-1,-1,-6,-2,-3,2,-3,-4
1569,1,-2,-6,-2,-4,1,-3,-2
1570,1,-3,-5,-2,-4,4,-2,0
1571,1,-5,-6,-2,-6,8,-2,1
1572,1,-6,-4,-1,-8,12,-2,1
1573,0,-7,-2,-1,-11,17,-2,1
1574,-1,-8,1,0,-14,20,-2,-1
1575,-1,-9,4,-1,-17,20,-2,-4
1576,-1,-11,7,-1,-18,17,-3,-6
1577,-1,-12,8,-2,-18,14,-3,-8
1578,-1,-14,7,-4,-17,14,-4,-9
1579,-2,-15,4,-6,-16,17,-5,-10
1580,-3,-15,3,-8,-15,20,-6,-11
1581,-4,-14,3,-9,-14,21,-7,-10
1582,-6,-11,4,-9,-13,22,-6,-10
1583,-6,-8,6,-8,-11,21,-6,-8
1584,-5,-4,7,-7,-9,21,-5,-7
1585,-5,-1,8,-6,-8,21,-4,-4
1586,-4,1,8,-4,-7,20,-3,-2
1587,-4,2,7,-3,-8,16,-2,1
1588,-4,2,6,-2,-9,12,-2,3
1589,-5,3,5,-1,-10,9,-2,5
1590,-5,4,4,0,-9,10,-2,6
1591,-4,5,4,0,-8,13,-1,7
1592,-3,6,4,0,-7,15,-1,7
1593,-2,6,4,-1,-6,16,-1,6
1594,0,5,4,-1,-5,15,0,5
1595,1,5,4,-2,-4,12,0,5
1596,1,4,2,-2,-3,9,0,4
1597,1,4,-1,-2,-3,7,0,3
1598,1,4,-4,-3,-2,6,-1,1
1599,0,4,-5,-4,-2,5,-2,0
1600,-1,4,-5,-4,-2,4,-3,-2
1601,-2,4,-4,-4,-2,0,-4,-3
1602,-4,4,-3,-4,-2,-4,-4,-4
1603,-5,3,-4,-4,-1,-10,-5,-5
1604,-7,2,-5,-4,-1,-16,-5,-6
1605,-7,1,-6,-3,-1,-21,-5,-8
1606,-7,1,-9,-2,-1,-26,-5,-9
1607,-7,1,-11,-2,-2,-29,-4,-10
1608,-7,2,-12,-3,-3,-28,-4,-9
1609,-7,4,-12,-4,-4,-26,-5,-9
1610,-7,4,-10,-5,-5,-23,-6,-7
1611,-7,5,-7,-6,-5,-21,-6,-6
1612,-6,5,-5,-7,-5,-20,-6,-5
1613,-4,5,-4,-7,-4,-20,-6,-5
1614,-3,5,-4,-6,-3,-22,-4,-4
1615,-1,4,-5,-5,-2,-22,-3,-4
1616,1,3,-7,-4,0,-21,-2,-3
1617,2,2,-9,-3,1,-17,-1,-2
1618,2,2,-9,-2,1,-14,0,-1
1619,2,2,-10,-2,0,-14,0,0
1620,2,3,-12,-1,-1,-17,0,1
1621,2,5,-13,-1,-2,-20,0,2
1622,2,6,-14,0,-3,-23,1,4
1623,3,7,-14,1,-3,-24,1,5
1624,2,9,-13,2,-3,-22,1,6
1625,2,10,-10,3,-3,-20,2,6
1626,1,10,-7,3,-3,-18,1,6
1627,-1,10,-3,2,-2,-15,0,5
1628,-3,8,0,0,-3,-12,-1,4
1629,-5,5,1,-1,-4,-12,-3,2
1630,-5,3,-1,-2,-5,-12,-4,0
1631,-5,2,-3,-2,-6,-12,-3,-1
1632,-3,1,-4,-1,-6,-12,-2,-2
1633,-1,2,-3,0,-5,-13,1,-1
1634,1,4,-2,1,-4,-14,3,0
1635,3,5,-1,2,-2,-14,4,2
1636,4,5,-1,3,-1,-14,5,3
1637,6,5,-2,4,-1,-15,5,4
1638,7,4,-4,5,-1,-17,6,6
1639,7,3,-8,6,-1,-18,6,6
1640,8,2,-12,7,-2,-19,6,7
1641,8,1,-16,8,-2,-23,6,7
1642,9,1,-19,9,-3,-28,6,7
1643,9,2,-19,10,-4,-32,6,9
1644,9,3,-17,10,-4,-32,6,11
1645,10,4,-12,10,-3,-29,7,13
1646,10,5,-7,10,-3,-24,7,14
1647,11,5,-1,10,-3,-19,7,14
1648,11,4,2,10,-3,-14,6,14
1649,12,3,4,10,-2,-10,6,14
1650,13,3,7,10,-1,-7,6,14
1651,14,4,10,10,2,-4,7,15
1652,15,5,12,10,4,-1,7,16
1653,16,7,13,10,6,2,7,17
1654,17,9,13,10,7,2,7,18
1655,18,10,11,9,8,2,7,19
1656,19,10,7,9,8,2,7,18
1657,19,10,2,9,8,2,7,17
1658,18,11,-3,9,8,2,7,15
1659,17,11,-6,9,7,2,6,13
1660,15,12,-8,8,5,3,6,12
1661,14,13,-9,7,4,2,5,12
1662,13,15,-10,7,5,1,4,13
1663,13,17,-10,6,6,-2,5,14
1664,13,19,-10,6,8,-4,5,16
1665,13,20,-11,6,9,-5,6,16
1666,13,21,-13,6,9,-6,7,16
1667,12,21,-14,6,9,-5,7,15
1668,12,21,-13,5,9,-4,7,14
1669,10,20,-13,5,9,-3,6,14
1670,9,19,-13,3,8,-1,4,13
1671,7,18,-14,1,8,-2,3,12
1672,6,16,-15,-1,7,-3,1,11
1673,4,14,-17,-3,7,-5,0,10
1674,2,11,-19,-5,6,-6,-1,8
1675,0,9,-20,-6,5,-6,-1,6
1676,-1,7,-21,-6,4,-6,-2,5
1677,-1,7,-21,-6,3,-7,-1,5
1678,0,8,-22,-6,2,-8,-1,6
1679,1,9,-22,-5,2,-10,0,7
1680,1,10,-21,-3,3,-12,0,9
1681,2,11,-20,-1,3,-14,1,10
1682,2,11,-21,0,4,-16,0,11
1683,1,11,-21,1,4,-18,-1,13
1684,-1,11,-21,1,4,-20,-2,14
1685,-3,11,-23,1,2,-21,-3,14
1686,-3,11,-26,2,1,-21,-3,14
1687,-3,11,-29,4,-1,-21,-3,14
1688,-1,10,-31,5,-2,-20,-3,13
1689,2,9,-33,7,-4,-18,-2,13
1690,3,8,-33,7,-5,-17,-1,13
1691,2,8,-33,7,-5,-17,-1,12
1692,1,7,-32,6,-6,-16,-2,11
1693,-3,6,-30,4,-6,-14,-3,9
1694,-6,5,-28,2,-7,-11,-5,7
1695,-9,4,-25,-1,-8,-10,-7,4
1696,-12,2,-23,-2,-9,-7,-9,2
1697,-14,0,-22,-4,-9,-5,-10,1
1698,-15,-1,-21,-4,-8,-4,-11,0
1699,-15,-3,-19,-4,-7,-7,-10,0
1700,-14,-4,-18,-4,-5,-12,-10,-1
1701,-12,-5,-16,-4,-2,-17,-9,0
1702,-9,-5,-13,-3,1,-21,-8,1
1703,-7,-4,-11,-1,4,-23,-6,3
1704,-4,-3,-10,2,5,-23,-4,4
1705,-1,-2,-10,3,5,-20,-3,4
1706,2,-1,-12,4,4,-16,-2,3
1707,3,0,-14,4,0,-11,-2,2
1708,4,1,-18,3,-4,-9,-2,-1
1709,5,1,-22,2,-8,-7,-1,-3
1710,4,2,-25,1,-12,-7,-1,-5
1711,2,3,-27,-1,-14,-6,-2,-7
1712,-1,2,-26,-3,-15,-4,-2,-9
1713,-3,2,-23,-6,-16,0,-3,-12
1714,-6,0,-20,-9,-16,3,-5,-13
1715,-8,-2,-15,-12,-16,5,-7,-15
1716,-10,-5,-10,-14,-14,6,-8,-17
1717,-11,-7,-5,-15,-13,6,-9,-18
1718,-11,-9,-2,-16,-11,7,-9,-18
1719,-11,-10,1,-16,-8,10,-9,-17
1720,-11,-10,2,-16,-5,12,-9,-16
1721,-10,-10,3,-16,-3,13,-10,-13
1722,-10,-11,4,-16,0,11,-10,-11
1723,-10,-11,5,-16,1,8,-11,-10
1724,-10,-10,6,-16,1,6,-11,-10
1725,-10,-9,8,-16,-1,5,-11,-10
1726,-10,-7,9,-15,-2,7,-11,-10
1727,-9,-5,8,-14,-2,8,-10,-10
1728,-9,-3,6,-14,-3,8,-9,-9
1729,-8,-3,3,-13,-3,8,-8,-8
1730,-7,-2,0,-13,-3,9,-7,-7
1731,-5,-2,-3,-12,-3,11,-7,-5
1732,-3,-2,-4,-11,-4,12,-6,-4
1733,-1,-2,-6,-10,-6,12,-5,-3
1734,1,-1,-7,-8,-7,10,-5,-3
1735,1,-1,-7,-7,-8,7,-5,-2
1736,1,-2,-5,-6,-8,3,-5,-2
1737,0,-2,-3,-6,-7,-1,-6,-3
1738,-1,-3,0,-6,-7,-1,-6,-3
1739,-2,-3,3,-5,-5,4,-6,-2
1740,-2,-2,6,-5,-4,11,-5,-2
1741,-2,-2,9,-4,-2,17,-5,-1
1742,-2,-1,13,-4,-2,20,-4,0
1743,-2,-2,18,-3,-1,21,-3,0
1744,-2,-2,22,-3,-2,18,-4,0
1745,-2,-3,24,-3,-3,15,-5,0
1746,-2,-4,25,-2,-5,13,-6,0
1747,-3,-3,25,-2,-7,15,-8,2
1748,-3,-1,26,-2,-8,18,-10,4
1749,-4,1,25,-2,-10,20,-12,6
1750,-5,3,24,-3,-11,21,-14,7
1751,-5,3,22,-4,-12,21,-14,7
1752,-5,3,21,-4,-13,19,-14,6
1753,-5,2,19,-5,-13,18,-14,4
1754,-6,2,18,-5,-14,18,-14,2
1755,-7,1,17,-6,-15,18,-14,0
1756,-9,0,17,-6,-16,17,-14,-1
1757,-10,-2,16,-7,-15,14,-14,-2
1758,-10,-4,15,-7,-14,13,-15,-2
1759,-9,-6,15,-7,-13,13,-15,-1
1760,-8,-7,16,-7,-11,13,-14,0
1761,-7,-7,18,-6,-10,12,-14,1
1762,-5,-6,20,-4,-8,9,-13,3
1763,-4,-5,20,-2,-7,6,-11,5
1764,-4,-5,18,-1,-6,3,-10,6
1765,-3,-4,15,0,-5,1,-10,7
1766,-2,-4,13,-1,-4,0,-9,7
1767,-2,-3,11,-1,-4,2,-9,6
1768,-3,-3,11,-3,-4,2,-9,4
1769,-3,-3,11,-4,-4,0,-9,3
1770,-4,-3,11,-4,-4,-2,-9,2
1771,-5,-3,11,-4,-4,-3,-9,3
1772,-4,-2,12,-4,-3,-3,-8,6
1773,-4,0,13,-2,-3,-3,-7,10
1774,-2,1,14,-1,-1,-3,-6,13
1775,0,1,15,-1,0,-3,-4,16
1776,1,1,16,0,2,-1,-4,18
1777,2,1,15,-1,3,2,-4,18
1778,2,0,13,-1,4,4,-4,17
1779,2,-1,12,-2,5,4,-5,17
1780,1,-2,10,-2,5,3,-6,16
1781,1,-3,9,-2,4,1,-6,16
1782,1,-3,8,-1,4,-2,-6,16
1783,0,-3,7,-1,4,-5,-6,17
1784,0,-2,5,-1,3,-7,-7,17
1785,-1,-2,4,-1,2,-7,-7,18
1786,-2,-1,3,-1,1,-6,-7,17
1787,-3,0,3,-2,-1,-6,-7,16
1788,-4,1,3,-2,-2,-4,-6,15
1789,-5,2,6,-2,-3,0,-6,14
1790,-5,3,9,-2,-2,3,-5,14
1791,-5,4,12,-2,-2,4,-5,14
1792,-5,5,14,-1,-1,4,-5,13
1793,-4,7,14,-1,0,2,-4,12
1794,-4,8,13,0,-1,-1,-4,12
1795,-3,9,11,0,-1,-4,-4,12
1796,-2,9,9,0,-2,-4,-3,12
1797,0,9,7,0,-3,-2,-3,12
1798,2,8,5,-1,-4,1,-2,12
1799,3,8,1,-1,-4,3,-1,12
1800,4,8,-3,-1,-3,3,-1,12
1801,5,8,-7,-1,-4,-1,-1,12
1802,5,8,-10,-1,-5,-6,-1,11
1803,4,9,-11,0,-5,-10,-1,11
1804,4,11,-12,1,-6,-13,0,10
1805,5,12,-13,2,-7,-16,1,10
1806,5,14,-16,4,-6,-17,1,10
1807,6,16,-18,5,-6,-18,1,10
1808,7,17,-18,5,-6,-18,1,11
1809,7,17,-16,6,-7,-17,1,10
1810,8,16,-14,6,-8,-14,1,9
1811,8,15,-12,6,-9,-12,0,8
1812,7,13,-11,5,-10,-9,-1,7
1813,6,12,-10,3,-10,-7,-3,6
1814,5,11,-9,2,-9,-5,-4,6
1815,3,9,-7,0,-9,-5,-5,6
1816,3,8,-5,-1,-8,-5,-5,7
1817,3,8,-3,0,-8,-5,-5,9
1818,3,8,-2,0,-8,-6,-4,10
1819,3,8,-2,1,-8,-8,-4,11
1820,3,8,-2,1,-7,-9,-3,12
1821,3,8,-2,2,-7,-8,-3,13
1822,4,8,0,2,-7,-6,-2,13
1823,4,8,1,3,-7,-4,-2,13
1824,5,8,1,3,-8,-2,-1,14
1825,6,8,-1,4,-8,1,-1,14
1826,6,7,-4,4,-8,1,-1,14
1827,7,6,-6,4,-9,0,-1,14
1828,7,5,-6,4,-9,-1,-1,14
1829,7,5,-5,4,-9,-1,-2,13
1830,7,4,-5,3,-9,-1,-2,12
1831,7,3,-5,3,-8,-2,-2,10
1832,6,2,-5,2,-7,-4,-3,9
1833,6,2,-4,1,-7,-7,-3,7
1834,5,1,-4,1,-7,-8,-3,5
1835,4,0,-4,0,-8,-10,-4,3
1836,2,-1,-3,-1,-9,-12,-4,2
1837,1,-2,-2,-2,-10,-12,-4,1
1838,0,-2,-2,-2,-10,-12,-4,0
1839,-1,-3,-3,-3,-10,-12,-4,-1
1840,-1,-4,-3,-3,-11,-12,-4,-2
1841,0,-4,-3,-3,-11,-11,-4,-3
1842,1,-3,-2,-3,-12,-8,-4,-2
1843,1,-2,-2,-2,-11,-4,-3,-1
1844,2,-1,-2,-2,-10,-3,-2,1
1845,2,1,-2,0,-9,-5,-2,2
1846,2,1,-3,1,-7,-7,-1,2
1847,3,0,-3,2,-7,-8,0,2
1848,3,-1,-4,3,-7,-7,1,3
1849,4,-3,-4,4,-8,-6,1,3
1850,4,-4,-3,4,-9,-4,0,3
1851,4,-4,-2,3,-10,-2,0,2
1852,4,-5,-1,2,-9,-1,1,1
1853,4,-5,-1,1,-8,-1,1,-2
1854,3,-5,1,0,-7,-1,1,-4
1855,3,-5,3,-1,-7,1,1,-5
1856,2,-5,5,-3,-6,3,0,-6
1857,2,-4,6,-4,-4,6,-1,-6
1858,1,-3,5,-6,-3,6,-2,-6
1859,-1,-2,3,-7,-2,5,-3,-7
1860,-2,-2,0,-8,0,3,-4,-7
1861,-2,-2,-2,-8,1,1,-3,-7
1862,-2,-3,-2,-7,1,1,-2,-7
1863,-2,-3,-2,-6,0,2,-1,-7
1864,-1,-3,-2,-6,-1,3,0,-8
1865,0,-4,-1,-5,-1,2,0,-8
1866,0,-4,1,-5,-2,-1,0,-10
1867,-1,-4,3,-6,-2,-2,0,-12
1868,-2,-5,6,-6,-2,-2,0,-13
1869,-2,-6,7,-6,-1,1,0,-14
1870,-3,-5,8,-5,-1,3,1,-15
1871,-2,-4,6,-5,0,3,2,-15
1872,-2,-2,4,-4,1,1,2,-15
1873,-2,0,2,-3,2,-3,3,-13
1874,-2,3,1,-3,3,-4,3,-12
1875,-2,6,0,-2,4,-2,3,-10
1876,-2,8,-1,-2,4,1,4,-8
1877,-3,10,-3,-2,3,3,4,-7
1878,-3,10,-4,-2,2,3,3,-8
1879,-5,9,-4,-3,0,2,2,-9
1880,-6,7,-3,-3,-1,0,1,-11
1881,-8,5,-1,-4,-2,1,-1,-12
1882,-9,3,1,-5,-3,4,-2,-12
1883,-9,2,4,-5,-4,7,-3,-12
1884,-9,1,5,-5,-5,8,-2,-10
1885,-9,1,5,-4,-5,9,-2,-9
1886,-8,1,5,-3,-5,8,-1,-8
1887,-7,2,4,-2,-5,8,0,-8
1888,-7,3,3,-1,-4,7,1,-7
1889,-6,4,1,1,-2,4,1,-7
1890,-6,5,-1,1,0,-1,1,-6
1891,-6,6,-2,1,2,-7,1,-5
1892,-6,7,-1,0,3,-9,0,-4
1893,-6,6,2,-1,4,-6,-1,-4
1894,-5,5,5,-3,3,0,-1,-4
1895,-4,2,8,-4,1,6,-2,-5
1896,-3,-1,10,-4,-2,10,-2,-6
1897,-3,-4,12,-4,-5,11,-2,-7
1898,-3,-6,13,-3,-7,11,-2,-9
1899,-3,-6,13,-3,-9,11,-2,-10
1900,-3,-6,13,-2,-10,11,-2,-12
1901,-4,-7,13,-3,-11,10,-3,-13
1902,-4,-8,11,-3,-12,8,-4,-15
1903,-4,-9,9,-4,-12,6,-5,-18
1904,-5,-10,8,-5,-13,4,-5,-19
1905,-5,-10,7,-4,-12,3,-5,-20
1906,-6,-8,6,-4,-10,2,-5,-20
1907,-6,-6,6,-3,-8,2,-4,-19
1908,-6,-3,6,-2,-5,3,-4,-18
1909,-6,-2,7,-1,-4,4,-4,-17
1910,-6,-2,9,-2,-4,7,-4,-17
1911,-5,-2,10,-2,-5,10,-4,-18
1912,-5,-2,10,-3,-6,12,-4,-17
1913,-4,-3,9,-3,-7,12,-4,-17
1914,-3,-4,8,-3,-7,11,-4,-15
1915,-2,-5,6,-3,-8,9,-4,-13
1916,-1,-6,5,-3,-8,9,-4,-11
1917,0,-6,4,-4,-10,10,-3,-8
1918,0,-7,3,-4,-12,13,-3,-6
1919,-1,-7,1,-4,-13,15,-2,-5
1920,-2,-7,-1,-4,-14,17,-2,-3
1921,-2,-8,0,-4,-14,17,-2,-2
1922,-2,-9,2,-4,-13,16,-3,-1
1923,-3,-10,4,-4,-12,13,-3,-1
1924,-3,-11,6,-4,-10,9,-4,-1
1925,-3,-12,8,-3,-8,7,-4,-1
1926,-3,-12,9,-3,-7,6,-4,0
1927,-3,-11,10,-2,-5,6,-4,2
1928,-2,-9,10,-1,-5,7,-3,4
1929,-1,-8,10,0,-4,7,-3,6
1930,0,-8,9,-1,-4,7,-2,6
1931,0,-8,9,-2,-4,8,-2,5
1932,1,-10,8,-3,-4,10,-2,2
1933,1,-12,7,-4,-5,13,-1,0
1934,2,-14,6,-5,-6,16,-2,-3
1935,3,-16,6,-5,-6,16,-2,-5
1936,4,-17,6,-5,-7,14,-2,-6
1937,4,-17,6,-5,-7,10,-2,-6
1938,4,-17,5,-5,-7,5,-2,-6
1939,3,-16,4,-5,-8,2,-2,-6
1940,1,-15,2,-5,-8,-1,-2,-4
1941,0,-12,1,-5,-8,-1,-1,-3
1942,-1,-10,0,-5,-7,2,-1,-1
1943,-2,-6,1,-5,-6,5,-1,0
1944,-3,-3,2,-4,-4,7,-1,1
1945,-4,-1,2,-4,-4,9,-1,2
1946,-4,1,2,-3,-4,8,-2,3
1947,-4,2,2,-4,-5,8,-3,4
1948,-5,2,4,-4,-5,8,-4,5
1949,-4,1,7,-4,-5,10,-4,5
1950,-4,0,10,-5,-5,13,-4,4
1951,-3,-1,12,-5,-6,16,-4,3
1952,-3,-1,11,-5,-7,18,-4,1
1953,-3,-2,9,-6,-8,17,-4,-1
1954,-3,-2,5,-6,-8,16,-4,-2
1955,-4,-2,2,-7,-8,13,-4,-2
1956,-4,-2,1,-8,-7,9,-4,-1
1957,-5,-1,3,-8,-5,6,-4,0
1958,-5,0,5,-8,-3,4,-5,2
1959,-5,1,8,-8,-1,5,-5,4
1960,-4,2,10,-6,2,5,-4,6
1961,-4,2,10,-5,4,6,-4,9
1962,-3,3,7,-4,4,6,-3,11
1963,-1,2,3,-3,3,4,-3,12
1964,0,2,0,-3,2,-1,-3,13
1965,1,1,-2,-3,0,-4,-3,13
1966,2,-1,-2,-3,-1,-6,-3,12
1967,2,-2,-1,-4,-2,-5,-4,11
1968,2,-3,2,-5,-2,-4,-4,10
1969,1,-3,4,-5,-3,-2,-4,8
1970,1,-3,6,-6,-3,0,-3,6
1971,1,-3,7,-5,-2,3,-3,5
1972,2,-1,8,-5,-1,5,-2,4
1973,2,0,9,-4,1,6,-1,3
1974,1,0,10,-4,2,6,-1,2
1975,1,0,11,-4,3,4,-2,1
1976,1,-2,13,-3,2,1,-2,0
1977,1,-3,13,-3,1,-3,-2,-1
1978,1,-5,13,-3,0,-3,-2,-2
1979,0,-6,12,-3,-1,0,-2,-2
1980,0,-7,12,-2,-3,2,-2,-2
1981,1,-8,12,-1,-4,4,-2,-2
1982,1,-8,14,0,-6,5,-2,-2
1983,2,-9,16,1,-7,5,-2,-2
1984,2,-9,16,0,-7,5,-2,-2
1985,2,-9,15,-1,-7,4,-2,-1
1986,1,-8,14,-1,-7,4,-3,-1
1987,1,-6,13,-2,-5,6,-2,1
1988,2,-5,14,-2,-4,8,-2,2
1989,2,-4,15,-1,-2,11,-1,3
1990,1,-4,17,-1,-1,13,-1,4
1991,1,-4,18,0,1,13,-1,5
1992,1,-4,18,0,1,11,0,5
1993,1,-5,16,0,1,7,0,5
1994,2,-7,14,0,0,4,1,5
1995,3,-8,13,1,0,2,2,5
1996,5,-10,13,1,0,2,3,4
1997,6,-10,12,2,-1,2,3,3
1998,6,-10,11,2,-2,3,4,2
1999,5,-10,11,2,-2,4,4,1
2000,5,-10,11,1,-2,4,3,0
2001,5,-10,10,0,-1,4,3,-1
2002,6,-10,9,-1,-1,5,2,-1
2003,6,-9,8,-1,0,6,2,-1
2004,6,-8,9,0,0,7,2,-1
2005,6,-8,10,0,-1,7,2,-1
2006,6,-7,12,1,-1,6,2,-1
2007,6,-7,16,1,-1,5,3,0
2008,5,-7,19,2,-2,5,3,1
2009,5,-7,20,2,-3,5,3,1
2010,6,-6,19,3,-4,7,3,1
2011,6,-5,17,4,-4,11,3,2
2012,7,-5,16,6,-4,14,4,2
2013,6,-5,15,7,-4,16,4,2
2014,6,-6,16,7,-4,17,3,2
2015,5,-6,16,7,-3,14,3,1
2016,4,-7,16,6,-3,11,3,0
2017,3,-8,14,6,-3,8,2,-2
2018,2,-9,13,5,-3,8,2,-3
2019,0,-9,13,6,-3,9,1,-4
2020,-1,-9,13,6,-3,10,1,-5
2021,-1,-8,13,6,-2,10,0,-5
2022,0,-7,12,6,-1,10,1,-5
2023,1,-6,10,5,0,9,1,-4
2024,2,-5,9,5,1,6,2,-3
2025,3,-5,7,4,1,4,2,-2
2026,3,-5,5,4,0,3,3,-1
2027,2,-5,4,3,-1,3,2,0
2028,2,-5,3,3,-1,3,2,0
2029,1,-6,3,3,-1,5,1,0
2030,1,-6,3,2,0,5,1,-1
2031,1,-7,3,2,0,4,1,-1
2032,1,-7,2,2,1,0,1,-2
2033,1,-6,1,2,2,-4,1,-2
2034,-1,-4,-1,2,4,-8,1,-1
2035,-2,-3,-2,2,5,-10,1,0
2036,-3,-3,-1,2,5,-10,1,1
2037,-3,-2,-1,3,4,-9,1,3
2038,-4,-2,-1,3,3,-8,0,3
2039,-4,-2,-2,3,2,-9,0,4
2040,-4,0,-2,3,1,-9,0,4
2041,-5,1,-2,3,1,-10,0,3
2042,-6,3,0,4,0,-9,1,3
2043,-7,4,0,4,-2,-9,1,1
2044,-8,4,-1,4,-4,-9,1,0
2045,-9,4,-2,4,-5,-8,1,-2
2046,-8,4,-3,4,-6,-5,1,-3
2047,-7,4,-5,4,-5,-4,2,-3
2048,-6,4,-6,3,-4,-3,2,-3
2049,-6,3,-6,3,-3,-4,2,-3
2050,-6,2,-5,2,-2,-6,2,-3
2051,-6,2,-5,1,-1,-9,1,-3
2052,-6,3,-5,1,1,-10,1,-3
2053,-6,4,-6,1,2,-8,1,-2
2054,-6,6,-7,2,3,-2,2,-1
2055,-6,8,-7,4,3,3,3,1
2056,-5,9,-8,5,2,6,3,3
2057,-5,10,-9,5,1,5,4,4
2058,-5,11,-10,5,0,3,3,5
2059,-5,13,-10,5,-1,2,3,5
2060,-5,14,-10,5,-2,2,3,4
2061,-6,15,-10,4,-3,4,2,3
2062,-7,15,-8,4,-5,7,2,-1
2063,-8,14,-6,3,-5,7,1,-3
2064,-9,12,-5,2,-4,6,1,-6
2065,-10,11,-4,2,-3,4,1,-7
2066,-9,9,-4,3,-1,2,2,-8
2067,-9,8,-3,4,0,1,3,-8
2068,-8,8,-3,5,1,0,4,-7
2069,-7,8,-4,6,1,-1,5,-6
2070,-6,8,-6,6,0,-1,6,-4
2071,-5,9,-8,6,1,-3,6,-2
2072,-4,11,-10,5,1,-5,6,1
2073,-4,13,-12,5,2,-7,6,3
2074,-4,14,-13,4,2,-9,6,5
2075,-4,15,-13,4,1,-10,5,5
2076,-5,15,-12,4,1,-8,5,5
2077,-5,15,-11,5,2,-4,5,5
2078,-5,14,-10,6,2,1,6,5
2079,-5,14,-8,7,2,5,6,4
2080,-4,13,-8,8,2,6,7,3
2081,-4,12,-7,8,2,5,7,1
2082,-4,10,-7,8,1,3,7,0
2083,-3,8,-6,8,0,2,6,-2
2084,-3,8,-6,6,0,3,5,-3
2085,-4,8,-6,5,0,5,4,-3
2086,-4,9,-7,3,1,6,3,-3
2087,-5,9,-7,2,2,5,2,-3
2088,-6,10,-7,2,3,2,2,-3
2089,-6,9,-7,2,3,-1,2,-3
2090,-5,8,-8,3,2,-2,3,-4
2091,-4,8,-9,3,1,-2,3,-5
2092,-3,7,-9,3,0,-2,3,-5
2093,-2,7,-9,3,-1,-1,4,-6
2094,-1,7,-8,4,-1,0,4,-6
2095,0,7,-7,4,-1,1,4,-6
2096,0,6,-7,4,-1,1,4,-6
2097,-1,5,-8,3,-1,1,3,-6
2098,-2,4,-8,2,-1,0,2,-6
2099,-3,2,-7,2,-2,-2,1,-6
2100,-3,0,-6,2,-2,-5,1,-6
2101,-3,-2,-4,3,-2,-6,1,-6
2102,-2,-3,-3,4,-2,-5,1,-4
2103,-1,-4,-5,6,-2,-3,2,-3
2104,0,-3,-9,7,-3,-1,3,-2
2105,1,-3,-13,6,-5,0,3,-1
2106,1,-2,-16,5,-8,0,3,0
2107,1,-1,-17,4,-11,-1,2,-1
2108,2,-1,-17,3,-13,-3,2,-1
2109,2,-1,-16,1,-13,-5,1,0
2110,3,0,-14,1,-13,-7,1,2
2111,3,1,-13,1,-11,-8,2,3
2112,4,2,-11,2,-9,-9,2,5
2113,4,2,-8,3,-7,-9,2,7
2114,4,2,-6,4,-5,-7,2,9
2115,4,2,-5,5,-5,-6,2,9
2116,3,1,-4,5,-5,-5,2,9
2117,2,0,-5,5,-5,-5,1,8
2118,2,-1,-5,5,-5,-5,1,7
2119,1,-2,-5,5,-4,-4,1,6
2120,1,-2,-7,5,-4,-3,1,5
2121,1,-2,-8,5,-4,-1,1,5
2122,1,-2,-9,6,-3,0,2,5
2123,1,-1,-11,6,-2,0,3,5
2124,1,1,-12,7,-1,-2,4,6
2125,2,2,-12,7,-1,-5,6,6
2126,2,3,-13,8,-2,-6,7,7
2127,1,4,-13,8,-2,-5,8,7
2128,0,5,-13,9,-3,-5,8,8
2129,0,5,-13,9,-4,-5,8,9
2130,0,4,-13,9,-3,-6,7,11
2131,0,3,-13,9,-3,-8,7,12
2132,0,1,-13,9,-3,-11,6,12
2133,1,-1,-12,8,-4,-12,5,11
2134,2,-3,-11,8,-5,-13,4,10
2135,2,-5,-10,7,-6,-13,3,9
2136,2,-8,-9,6,-7,-13,3,8
2137,3,-10,-9,6,-7,-14,2,7
2138,3,-11,-10,6,-8,-17,2,5
2139,2,-12,-10,5,-8,-19,1,4
2140,2,-13,-11,4,-8,-21,1,3
2141,2,-14,-11,2,-9,-22,0,2
2142,2,-14,-12,1,-9,-23,-1,1
2143,2,-13,-12,-1,-9,-23,-2,1
2144,2,-13,-12,-2,-9,-19,-2,0
2145,2,-13,-10,-2,-9,-14,-2,-1
2146,2,-12,-9,-2,-8,-10,-2,-2
2147,2,-12,-8,-1,-7,-6,-2,-3
2148,2,-11,-8,0,-7,-3,-1,-4
2149,2,-10,-9,1,-7,-4,-1,-5
2150,2,-8,-11,2,-7,-6,0,-5
2151,2,-6,-13,4,-7,-10,0,-4
2152,2,-4,-16,5,-5,-12,1,-3
2153,2,-2,-18,5,-2,-13,2,-1
2154,2,1,-21,5,0,-12,3,0
2155,2,1,-22,6,2,-10,3,0
2156,2,1,-21,6,2,-8,4,-1
2157,3,1,-19,6,1,-6,5,-2
2158,3,1,-16,6,1,-5,5,-3
2159,2,1,-13,5,2,-5,5,-3
2160,1,1,-12,5,3,-6,5,-4
2161,1,2,-13,4,4,-8,5,-5
2162,-1,2,-12,3,5,-10,4,-6
2163,-3,1,-11,2,5,-14,3,-8
2164,-4,0,-10,1,5,-18,2,-10
2165,-5,0,-9,0,5,-23,1,-11
2166,-7,0,-9,-1,5,-26,1,-10
2167,-8,1,-10,-2,5,-26,0,-9
2168,-9,1,-9,-2,6,-24,-1,-8
2169,-10,2,-8,-3,6,-22,-2,-6
2170,-10,4,-6,-3,7,-18,-2,-3
2171,-9,5,-4,-2,7,-13,-2,-1
2172,-9,8,-4,-2,7,-9,-1,1
2173,-8,10,-5,-1,6,-6,0,3
2174,-7,13,-6,0,5,-3,1,3
2175,-6,14,-7,1,4,-1,2,4
2176,-5,14,-8,2,4,-2,3,3
2177,-4,13,-7,2,6,-4,3,3
2178,-2,11,-5,2,7,-5,4,2
2179,-1,9,-3,3,8,-5,5,2
2180,1,6,-1,3,8,-4,6,1
2181,2,5,1,4,9,-3,6,1
2182,2,5,2,4,9,-1,6,1
2183,2,5,2,3,10,-1,6,1
2184,2,4,2,3,11,-1,5,1
2185,3,4,2,3,11,-2,5,1
2186,3,4,3,3,11,-2,5,2
2187,3,4,3,4,10,-2,5,2
2188,3,4,2,5,8,-1,4,2
2189,2,5,1,4,6,2,4,2
2190,1,5,0,4,5,3,3,2
2191,1,5,-1,2,4,5,2,2
2192,1,4,-1,1,3,6,2,1
2193,0,4,0,0,2,6,2,-1
2194,0,3,1,-2,1,6,1,-3
2195,-1,2,3,-3,0,7,1,-5
2196,-1,0,3,-4,0,6,0,-6
2197,0,-2,4,-5,0,3,-1,-7
2198,1,-3,4,-6,0,0,-2,-7
2199,2,-4,4,-6,0,-1,-2,-6
2200,2,-4,5,-5,1,-1,-2,-5
2201,2,-3,6,-5,1,1,-1,-5
2202,2,-2,6,-4,1,2,0,-4
2203,2,0,5,-4,1,3,1,-4
2204,2,2,3,-4,1,2,1,-3
2205,2,3,1,-4,2,0,1,-3
2206,2,3,0,-5,2,-4,-1,-3
2207,1,2,1,-5,1,-6,-1,-3
2208,-1,1,2,-4,1,-7,-2,-4
2209,-2,-1,3,-3,-1,-5,-2,-4
2210,-3,-2,4,-1,-2,-4,-2,-4
2211,-4,-3,5,1,-3,-4,-2,-3
2212,-3,-4,6,2,-3,-5,-2,-2
2213,-3,-3,9,3,-3,-6,-2,0
2214,-2,-2,11,4,-2,-7,-1,2
2215,-1,-1,12,5,0,-7,0,4
2216,0,0,11,5,1,-8,2,4
2217,1,0,9,5,2,-8,3,3
2218,2,-1,6,4,3,-10,3,2
2219,2,-2,3,4,3,-12,4,2
2220,3,-2,1,4,3,-15,4,2
2221,4,-2,0,4,2,-17,4,3
2222,5,-3,0,4,1,-16,4,4
2223,6,-3,1,4,-1,-13,4,4
2224,6,-4,0,4,-3,-11,4,2
2225,6,-5,0,3,-5,-12,3,-1
2226,6,-5,0,2,-7,-13,3,-3
2227,5,-6,1,2,-7,-13,2,-5
2228,4,-6,2,1,-8,-13,1,-6
2229,2,-8,2,0,-7,-12,-1,-7
2230,0,-9,2,-2,-6,-11,-2,-7
2231,-2,-9,2,-4,-3,-10,-3,-7
2232,-3,-9,1,-5,-1,-13,-4,-7
2233,-3,-10,-1,-7,0,-17,-4,-7
2234,-2,-10,-3,-6,1,-20,-3,-7
2235,-1,-9,-6,-5,1,-22,-2,-6
2236,0,-8,-8,-2,1,-24,0,-5
2237,1,-8,-9,-1,1,-26,2,-4
2238,2,-7,-11,1,0,-28,3,-3
2239,4,-6,-12,2,-1,-29,3,-2
2240,5,-6,-13,2,-2,-30,4,-1
2241,7,-7,-13,2,-2,-28,4,-1
2242,9,-7,-13,2,-3,-25,4,-1
2243,10,-7,-12,2,-4,-20,5,-1
2244,10,-6,-11,3,-4,-17,6,-1
2245,10,-5,-9,4,-4,-14,6,-1
2246,11,-5,-8,5,-5,-13,6,-2
2247,11,-4,-7,5,-5,-12,6,-3
2248,10,-4,-6,5,-6,-12,6,-4
2249,9,-3,-6,3,-7,-13,5,-6
2250,8,-3,-6,2,-6,-13,4,-7
2251,7,-3,-6,0,-6,-13,4,-7
2252,6,-3,-6,-2,-5,-12,3,-7
2253,5,-4,-6,-4,-4,-11,1,-7
2254,4,-5,-6,-5,-4,-10,0,-9
2255,2,-6,-7,-7,-5,-10,-1,-11
2256,1,-7,-10,-7,-6,-12,-2,-13
2257,0,-8,-13,-8,-7,-14,-2,-14
2258,-1,-8,-16,-7,-7,-15,-1,-15
2259,-1,-7,-19,-7,-6,-15,-1,-14
2260,-2,-5,-19,-6,-4,-16,-1,-13
2261,-2,-4,-18,-5,-3,-17,0,-12
2262,-3,-3,-15,-5,-2,-18,0,-11
2263,-2,-2,-13,-4,-2,-19,1,-10
2264,-2,-2,-11,-3,-3,-18,1,-9
2265,-1,-2,-10,-2,-4,-15,1,-9
2266,1,-2,-9,-2,-6,-11,1,-9
2267,2,-3,-7,-2,-6,-6,1,-9
2268,2,-3,-5,-1,-6,-2,2,-9
2269,3,-3,-4,0,-6,1,2,-9
2270,3,-2,-3,1,-5,3,3,-9
2271,2,-1,-2,2,-5,4,3,-9
2272,2,-1,-1,2,-6,4,3,-10
2273,2,-1,1,2,-7,3,3,-11
2274,2,-2,3,1,-8,1,2,-12
2275,2,-3,5,1,-8,0,1,-12
2276,3,-3,6,1,-8,1,0,-11
2277,3,-4,5,1,-6,3,-1,-10
2278,2,-5,5,1,-5,4,-2,-9
2279,2,-7,4,1,-5,3,-3,-8
2280,1,-8,4,1,-5,1,-4,-8
2281,1,-10,4,0,-6,-3,-4,-7
2282,1,-10,4,-1,-7,-5,-5,-6
2283,0,-10,5,-1,-9,-4,-5,-5
2284,-1,-9,4,-2,-10,-2,-5,-3
2285,-2,-8,4,-3,-11,1,-4,-2
2286,-3,-8,5,-3,-12,2,-4,-2
2287,-3,-8,5,-4,-13,5,-3,-3
2288,-3,-9,7,-4,-13,9,-3,-5
2289,-3,-10,8,-3,-13,13,-3,-7
2290,-3,-11,9,-3,-14,16,-3,-8
2291,-2,-11,10,-2,-15,17,-3,-9
2292,-2,-10,9,-1,-15,14,-2,-8
2293,-2,-9,8,-1,-14,9,-1,-7
2294,-2,-7,7,0,-13,7,0,-6
2295,-3,-6,6,1,-12,6,1,-5
2296,-3,-5,5,1,-11,8,2,-3
2297,-2,-5,5,2,-9,9,3,-2
2298,-1,-5,4,2,-8,11,3,-1
2299,0,-5,3,1,-8,12,3,-1
2300,0,-4,2,0,-8,13,3,-2
2301,0,-4,0,-2,-8,14,2,-3
2302,-2,-4,-2,-3,-8,14,2,-5
2303,-3,-5,-3,-4,-8,13,1,-6
2304,-5,-5,-3,-5,-9,13,0,-7
2305,-6,-4,-2,-5,-9,14,0,-7
2306,-6,-4,-2,-5,-9,15,-1,-7
2307,-6,-3,-2,-4,-9,13,-1,-6
2308,-5,-2,-3,-3,-9,13,-1,-5
2309,-4,-1,-5,-3,-9,13,-1,-3
2310,-2,2,-5,-2,-8,15,-1,-1
2311,-1,5,-5,-2,-6,16,-1,1
2312,0,8,-5,-1,-5,17,-1,3
2313,0,10,-6,-1,-3,16,-1,4
2314,1,11,-7,-1,-2,11,-1,5
2315,1,12,-7,-1,-1,6,0,4
2316,1,11,-7,-1,0,5,0,3
2317,1,11,-6,-1,1,6,1,2
2318,1,10,-5,-2,1,8,1,1
2319,1,10,-5,-2,1,8,0,1
2320,1,10,-5,-2,1,6,-1,1
2321,0,10,-6,-3,0,4,-1,1
2322,0,11,-6,-2,0,3,0,2
2323,-1,11,-4,-2,0,6,0,3
2324,-2,11,-2,-2,1,9,0,4
2325,-2,11,2,-2,1,11,-1,5
2326,-3,9,5,-3,1,12,-1,5
2327,-3,8,6,-3,1,12,-2,6
2328,-3,7,7,-4,2,12,-2,7
2329,-2,7,7,-5,2,14,-2,8
2330,-1,6,8,-5,2,16,-2,8
2331,-1,5,7,-5,2,17,-2,7
2332,0,5,6,-5,2,18,-2,6
2333,0,4,5,-5,2,18,-3,5
2334,0,4,3,-6,2,18,-3,5
2335,0,5,2,-6,2,17,-3,4
2336,0,4,1,-6,2,16,-3,4
2337,0,3,0,-7,3,16,-2,4
2338,1,1,-1,-7,2,17,-2,3
2339,1,-1,-1,-8,1,18,-2,2
2340,2,-3,-2,-8,-1,20,-1,1
2341,2,-4,-2,-7,-4,22,-1,-1
2342,3,-5,-3,-7,-5,22,-1,-2
2343,4,-6,-4,-6,-6,21,-1,-3
2344,4,-7,-5,-5,-6,18,-1,-3
2345,5,-7,-7,-4,-5,17,0,-3
2346,6,-6,-9,-4,-4,16,0,-1
2347,6,-5,-9,-3,-3,14,1,1
2348,7,-3,-10,-3,-1,10,1,3
2349,7,-2,-10,-4,1,5,1,4
2350,7,-2,-9,-4,2,2,1,3
2351,6,-1,-7,-5,3,1,1,3
2352,6,-1,-5,-6,4,3,0,2
2353,4,0,-3,-7,3,7,-1,1
2354,2,1,-2,-8,3,11,-1,1
2355,0,2,-2,-8,3,13,-1,1
2356,-2,3,-2,-7,3,12,-1,1
2357,-3,4,-3,-6,4,11,0,0
2358,-4,5,-3,-5,4,8,0,-1
2359,-4,6,-2,-4,5,7,1,-1
2360,-3,8,-2,-3,6,6,1,1
2361,-2,10,-2,-2,7,4,1,4
2362,-1,11,-2,-2,8,2,1,6
2363,1,12,-4,-1,8,1,2,9
2364,2,12,-5,-1,9,2,3,10
2365,2,12,-5,-1,9,3,4,9
2366,3,10,-5,-1,8,3,5,8
2367,2,8,-4,-2,8,2,5,5
2368,2,6,-2,-3,7,1,5,2
2369,1,5,-1,-4,7,2,5,0
2370,0,4,1,-4,8,1,5,-1
2371,-1,2,2,-5,8,0,4,-1
2372,-3,1,3,-5,7,-2,2,-1
2373,-4,0,4,-6,7,-3,1,0
2374,-6,-1,4,-6,5,-4,0,0
2375,-7,-2,4,-6,4,-5,0,0
2376,-7,-3,4,-6,3,-4,-1,-1
2377,-8,-3,4,-5,2,-3,-1,-2
2378,-8,-2,3,-5,2,-2,-1,-2
2379,-7,-2,2,-4,1,-3,-1,-2
2380,-7,-2,1,-4,1,-4,-1,-2
2381,-6,-2,1,-4,1,-6,-1,-2
2382,-5,-2,0,-4,2,-6,0,-1
2383,-4,-1,0,-5,3,-4,0,-1
2384,-3,-1,1,-5,3,-3,-1,0
2385,-3,-1,2,-6,3,-2,-1,1
2386,-3,-1,5,-6,1,-1,-1,1
2387,-3,-2,8,-6,-1,0,-1,0
2388,-2,-3,11,-5,-2,1,0,-1
2389,-2,-3,12,-4,-3,1,1,-2
2390,-1,-3,13,-4,-2,0,2,-3
2391,0,-3,13,-3,-1,0,3,-3
2392,1,-3,13,-3,1,-2,5,-2
2393,3,-2,12,-4,3,-4,5,-2
2394,4,-2,10,-5,4,-6,5,-1
2395,6,-3,9,-6,5,-8,5,1
2396,7,-3,8,-6,5,-9,5,2
2397,8,-4,7,-6,4,-8,5,2
2398,8,-4,7,-5,3,-6,5,2
2399,8,-4,8,-3,1,-2,5,1
2400,6,-4,10,-2,0,2,6,-1
2401,5,-4,12,0,-1,5,6,-2
2402,3,-4,13,1,-1,5,6,-3
2403,1,-4,14,2,-1,3,6,-4
2404,0,-5,13,2,-2,-1,6,-5
2405,0,-5,12,3,-2,-4,6,-5
2406,0,-7,11,2,-2,-6,5,-6
2407,0,-8,11,2,-1,-6,5,-7
2408,0,-8,10,2,0,-6,4,-8
2409,-1,-7,10,1,1,-7,4,-8
2410,-1,-6,7,2,1,-8,3,-8
2411,-1,-5,4,2,0,-10,3,-7
2412,-1,-4,0,3,-1,-12,3,-6
2413,1,-4,-3,3,-1,-15,4,-5
2414,2,-5,-6,4,0,-17,5,-5
2415,4,-6,-8,5,1,-17,5,-6
2416,5,-7,-8,6,1,-15,6,-7
2417,6,-8,-8,7,1,-13,6,-8
2418,7,-7,-7,7,1,-12,6,-9
2419,9,-7,-6,7,0,-10,7,-9
2420,11,-6,-5,8,0,-8,7,-9
2421,12,-5,-3,9,-1,-7,8,-9
2422,12,-5,-2,9,-1,-6,8,-9
2423,12,-5,0,10,-1,-6,8,-10
2424,11,-5,3,10,-1,-6,8,-10
2425,10,-5,6,10,0,-6,7,-9
2426,10,-4,9,9,1,-6,7,-7
2427,10,-4,11,9,2,-6,6,-5
2428,10,-4,12,8,3,-7,6,-3
2429,10,-6,13,7,3,-7,6,-3
2430,10,-8,13,6,4,-7,5,-4
2431,10,-10,14,5,4,-5,5,-6
2432,9,-11,16,4,6,-4,4,-7
2433,8,-11,17,4,7,-3,4,-7
2434,8,-9,18,4,9,-3,3,-6
2435,7,-8,19,4,12,-3,2,-4
2436,7,-8,19,3,13,-4,2,-2
2437,7,-8,20,3,14,-3,1,-1
2438,7,-9,21,2,13,-2,1,0
2439,7,-11,22,2,12,-1,1,0
2440,7,-14,22,1,9,-1,1,-2
2441,7,-16,23,1,7,-2,1,-4
2442,6,-17,23,0,4,-4,1,-7
2443,5,-18,23,-1,2,-4,0,-10
2444,3,-19,24,-3,-1,-3,-1,-12
2445,1,-19,23,-4,-2,-1,-2,-13
2446,0,-18,21,-4,-3,0,-2,-13
2447,-1,-18,19,-4,-4,0,-2,-12
2448,-1,-16,16,-3,-3,-2,-1,-10
2449,0,-15,12,-2,-3,-3,0,-8
2450,1,-13,10,0,-2,-4,1,-6
2451,2,-11,9,1,-2,-3,2,-4
2452,3,-9,8,2,-2,0,3,-2
2453,4,-8,7,3,-3,4,3,-2
2454,4,-6,6,3,-4,7,4,-2
2455,4,-4,5,3,-3,9,4,-2
2456,4,-2,5,3,-2,9,5,-2
2457,4,-1,6,3,-1,9,5,-3
2458,5,-1,7,4,0,8,6,-2
2459,6,-1,8,6,0,6,7,-2
2460,8,-1,9,7,-1,3,7,-1
2461,10,-2,9,9,-2,-1,8,0
2462,11,-2,10,9,-2,-1,8,2
2463,12,-2,12,9,-2,2,7,4
2464,11,-1,14,9,-2,7,6,7
2465,11,-1,16,8,-2,13,5,8
2466,10,-1,17,8,-2,18,4,9
2467,9,-1,16,7,-2,20,3,9
2468,8,-1,16,7,-2,19,3,8
2469,7,-1,15,7,-1,16,2,7
2470,7,-2,16,7,0,12,2,6
2471,6,-2,16,7,1,10,2,6
2472,5,-2,17,6,1,9,1,5
2473,4,-1,17,5,2,7,0,5
2474,4,0,16,4,2,6,-1,5
2475,4,1,15,2,3,7,-2,5
2476,4,2,14,2,4,8,-3,5
2477,5,2,13,1,5,6,-3,5
2478,5,1,12,1,5,3,-2,4
2479,6,0,11,2,6,3,-1,4
2480,8,-1,10,4,7,4,1,4
2481,10,-3,8,5,7,5,2,4
2482,12,-4,6,6,7,4,3,3
2483,13,-6,5,7,6,3,4,2
2484,14,-6,5,6,6,-1,3,1
2485,13,-7,6,5,5,-6,3,-1
2486,12,-7,8,4,4,-10,2,-2
2487,10,-7,9,3,3,-11,1,-3
2488,8,-7,8,2,1,-10,0,-4
2489,5,-8,7,1,-1,-9,-1,-6
2490,3,-9,6,0,-2,-8,-2,-7
2491,2,-9,6,-1,-4,-7,-2,-7
2492,2,-9,7,-1,-5,-7,-3,-7
2493,3,-9,7,-1,-6,-7,-3,-6
2494,3,-9,7,-1,-6,-6,-4,-5
2495,4,-8,7,-1,-6,-4,-4,-4
2496,5,-7,6,-1,-5,-1,-4,-4
2497,5,-5,6,-1,-4,3,-4,-3
2498,6,-3,7,-1,-3,6,-3,-3
2499,7,-3,7,0,-2,8,-2,-2
2500,7,-2,7,1,-1,7,-2,-2
2501,8,-2,6,1,-1,4,-1,-3
2502,9,-2,5,1,-1,2,-1,-3
2503,9,-2,4,1,-1,3,0,-4
2504,9,-1,3,2,-1,4,1,-4
2505,9,1,3,2,-2,5,1,-4
2506,9,2,2,3,-3,7,2,-5
2507,9,2,1,3,-4,7,2,-5
2508,9,2,0,4,-4,7,2,-6
2509,9,2,0,3,-4,7,2,-6
2510,8,1,1,3,-4,8,2,-6
2511,6,0,2,2,-4,9,1,-7
2512,4,-1,3,1,-4,10,0,-8
2513,1,-2,4,-1,-6,10,-1,-9
2514,-2,-3,5,-1,-7,7,-3,-10
2515,-4,-2,4,-2,-9,4,-4,-9
2516,-4,-1,2,-2,-10,2,-4,-8
2517,-4,1,-1,-2,-10,1,-5,-5
2518,-2,2,-3,-2,-9,1,-5,-4
2519,-1,2,-4,-2,-8,1,-5,-3
2520,1,2,-4,-3,-7,2,-4,-3
2521,2,1,-3,-3,-8,4,-3,-3
2522,2,0,-3,-3,-8,5,-3,-4
2523,2,-2,-2,-3,-9,6,-2,-4
2524,2,-3,-2,-3,-10,7,-2,-5
2525,2,-4,-2,-3,-10,8,-2,-7
2526,3,-5,-1,-3,-11,7,-2,-8
2527,4,-6,1,-2,-10,6,-1,-8
2528,6,-5,3,-1,-10,6,0,-7
2529,8,-5,4,1,-9,9,1,-6
2530,10,-6,5,2,-7,12,3,-4
2531,12,-7,5,3,-7,15,4,-2
2532,12,-8,3,4,-6,16,4,-1
2533,12,-9,1,3,-5,14,4,0
2534,10,-10,0,3,-4,11,3,1
2535,8,-10,-1,1,-4,7,2,1
2536,5,-9,-2,0,-4,5,1,0
2537,2,-9,-3,-1,-5,5,-1,-2
2538,0,-9,-3,-2,-6,7,-2,-3
2539,-2,-9,-3,-3,-7,8,-4,-5
2540,-2,-9,-2,-3,-7,10,-5,-7
2541,-1,-8,-1,-4,-7,11,-6,-7
2542,-1,-7,-1,-4,-6,13,-6,-7
2543,0,-6,-1,-3,-7,14,-6,-6
2544,-1,-5,-2,-3,-7,13,-7,-4
2545,-2,-3,-3,-2,-8,12,-7,-3
2546,-3,-2,-4,-2,-9,11,-7,-1
2547,-3,-2,-5,-2,-9,11,-6,-1
2548,-3,-2,-5,-2,-10,12,-5,0
2549,-1,-2,-5,-2,-10,14,-4,0
2550,1,-2,-4,-2,-10,16,-4,0
2551,3,-2,-2,-2,-8,16,-3,0
2552,5,-1,-1,-1,-5,16,-1,0
2553,7,-1,0,-1,-3,14,0,0
2554,9,-1,0,0,-2,13,1,0
2555,10,-3,-1,1,-2,11,1,-1
2556,10,-4,-1,1,-3,11,1,-2
2557,9,-6,-1,0,-5,11,0,-3
2558,7,-8,1,-1,-7,12,-1,-5
2559,5,-10,3,-2,-8,13,-3,-7
2560,3,-11,5,-3,-9,14,-4,-8
2561,1,-12,6,-5,-9,13,-6,-7
2562,1,-12,6,-6,-8,12,-7,-7
2563,1,-10,5,-6,-7,10,-7,-5
2564,1,-9,4,-5,-6,9,-6,-3
2565,2,-7,3,-4,-4,10,-6,-2
2566,3,-5,3,-3,-3,11,-5,-2
2567,4,-4,2,-2,-1,11,-4,-2
2568,6,-4,1,-2,1,10,-2,-2
2569,8,-3,1,-1,2,8,-1,-2
2570,9,-3,1,-1,4,8,1,-1
2571,10,-2,2,-1,6,8,2,1
2572,10,-1,4,-1,6,8,3,3
2573,10,0,5,-1,6,9,3,5
2574,10,0,5,-1,6,10,3,6
2575,10,0,4,-2,6,10,3,6
2576,9,0,2,-1,5,10,3,5
2577,9,-1,0,-1,5,10,3,4
2578,8,-3,-3,-1,5,10,3,4
2579,7,-4,-5,-1,5,9,3,3
2580,6,-6,-6,-1,6,6,3,2
2581,6,-7,-6,-1,8,2,3,2
2582,7,-7,-4,-1,10,-2,3,3
2583,7,-6,0,-1,11,-3,4,5
2584,8,-5,4,1,12,-4,4,7
2585,9,-5,8,2,13,-3,5,9
2586,10,-4,11,4,14,-2,5,11
2587,11,-2,13,5,14,0,5,12
2588,12,0,12,7,14,3,6,13
2589,12,4,11,9,13,7,7,14
2590,12,8,10,11,12,10,7,15
2591,13,11,9,12,11,13,8,15
2592,14,12,9,12,9,14,8,15
2593,15,12,10,13,8,15,9,15
2594,16,11,13,12,8,17,9,15
2595,17,12,16,12,8,18,9,16
2596,18,12,17,12,9,20,10,16
2597,18,13,17,11,11,19,10,16
2598,17,14,15,11,12,17,10,16
2599,17,13,14,10,13,13,10,15
2600,16,12,13,10,13,9,10,15
2601,16,11,14,11,12,7,10,14
2602,15,10,15,10,11,7,10,13
2603,14,9,15,9,10,7,9,11
2604,13,8,14,8,9,6,8,10
2605,11,7,13,7,8,3,7,8
2606,9,5,12,5,7,2,6,6
2607,7,4,12,4,6,2,5,5
2608,5,3,11,2,5,4,4,5
2609,3,1,10,1,5,6,3,4
2610,2,0,8,0,4,7,2,2
2611,1,-1,4,0,3,6,1,1
2612,1,-1,1,0,1,4,0,0
2613,1,-2,-2,0,0,2,-1,-1
2614,2,-2,-3,-1,-1,0,-2,-2
2615,2,-1,-3,-1,-1,-2,-2,-2
2616,3,-1,-4,0,-1,-4,-2,-2
2617,3,0,-4,1,-1,-6,-1,-3
2618,5,0,-5,2,-1,-9,-1,-4
2619,6,-1,-6,3,-2,-11,0,-5
2620,6,-3,-8,3,-2,-12,1,-7
2621,7,-3,-9,2,-3,-12,1,-8
2622,6,-4,-9,2,-5,-11,1,-9
2623,6,-4,-9,1,-7,-9,0,-11
2624,6,-4,-9,1,-8,-6,-1,-12
2625,6,-4,-9,1,-8,-3,-1,-12
2626,6,-3,-9,0,-7,0,-1,-12
2627,6,-2,-10,0,-6,2,-1,-11
2628,6,-2,-11,-1,-3,4,-1,-10
2629,5,-1,-11,-2,-2,5,-1,-9
2630,5,-1,-11,-3,-1,4,-1,-9
2631,3,-2,-12,-5,-1,1,-2,-9
2632,2,-3,-11,-6,-1,-3,-2,-11
2633,1,-4,-11,-6,-1,-7,-3,-12
2634,1,-6,-11,-7,-2,-11,-3,-14
2635,1,-7,-10,-6,-2,-13,-4,-14
2636,2,-7,-8,-6,-2,-13,-4,-15
2637,2,-6,-6,-5,-1,-12,-3,-14
2638,3,-4,-5,-4,1,-11,-2,-14
2639,3,-2,-5,-3,2,-11,-1,-14
2640,3,-1,-6,-4,3,-10,0,-14
2641,3,-1,-9,-5,2,-10,1,-14
2642,3,-3,-10,-6,-1,-11,1,-16
2643,4,-5,-12,-7,-4,-10,1,-17
2644,5,-6,-12,-7,-5,-7,0,-18
2645,5,-7,-13,-7,-6,-5,0,-18
2646,5,-8,-13,-7,-5,-3,-1,-18
2647,5,-8,-12,-7,-5,-3,-1,-18
2648,5,-7,-11,-7,-4,-5,-1,-17
2649,5,-6,-10,-7,-3,-7,-1,-17
2650,4,-5,-8,-6,-3,-10,-2,-16
2651,3,-4,-7,-6,-2,-12,-2,-16
2652,1,-3,-6,-5,0,-12,-2,-15
2653,-1,-2,-5,-5,2,-12,-2,-14
2654,-2,-1,-2,-6,3,-13,-3,-13
2655,-3,-1,-1,-6,3,-15,-3,-13
2656,-4,-1,-1,-5,2,-16,-4,-11
2657,-3,-1,-2,-4,-1,-15,-4,-10
2658,-2,0,-5,-2,-4,-13,-3,-9
2659,-2,1,-9,-1,-8,-11,-2,-8
2660,-1,2,-12,-1,-12,-10,-1,-8
2661,-1,1,-15,-1,-16,-7,1,-9
2662,-2,1,-16,-1,-18,-6,2,-10
2663,-2,-1,-15,-1,-19,-6,2,-11
2664,-3,-4,-13,-1,-20,-7,2,-13
2665,-3,-6,-10,-1,-21,-8,2,-13
2666,-3,-7,-7,0,-21,-10,1,-13
2667,-4,-9,-6,0,-21,-11,0,-12
2668,-4,-10,-5,1,-20,-12,-1,-10
2669,-3,-10,-5,2,-18,-11,-1,-9
2670,-3,-9,-4,3,-15,-9,0,-8
2671,-3,-6,-3,3,-12,-7,1,-6
2672,-3,-4,-2,4,-9,-6,2,-5
2673,-3,-2,-2,4,-6,-5,3,-4
2674,-4,-1,-1,4,-5,-3,2,-3
2675,-5,-1,-1,4,-4,-3,2,-2
2676,-6,-2,1,4,-4,-3,1,-3
2677,-8,-3,2,4,-6,-2,0,-3
2678,-8,-4,4,4,-7,1,-1,-4
2679,-9,-6,5,4,-8,5,-2,-5
2680,-8,-6,6,3,-9,8,-2,-6
2681,-8,-7,6,3,-9,10,-3,-6
2682,-7,-7,5,3,-9,10,-2,-6
2683,-6,-7,4,3,-10,8,-2,-5
2684,-5,-7,2,3,-10,5,-2,-5
2685,-4,-7,0,3,-10,3,-1,-4
2686,-3,-7,-1,2,-10,4,-1,-3
2687,-2,-7,-1,2,-10,5,-1,-3
2688,-1,-7,-2,2,-11,7,-1,-3
2689,0,-6,-2,1,-11,8,-1,-3
2690,2,-6,-2,1,-11,7,0,-2
2691,3,-6,-3,1,-10,5,0,-1
2692,4,-7,-1,1,-8,5,1,0
2693,4,-6,2,1,-6,9,1,1
2694,3,-6,5,0,-4,14,1,2
2695,1,-6,7,-1,-4,20,0,2
2696,-1,-6,9,-2,-5,23,-1,1
2697,-2,-6,9,-3,-7,24,-2,1
2698,-4,-6,8,-4,-8,21,-4,0
2699,-6,-6,6,-4,-10,16,-5,-2
2700,-7,-7,4,-4,-11,12,-5,-3
2701,-8,-8,3,-4,-12,10,-5,-5
2702,-9,-9,3,-3,-12,8,-4,-7
2703,-9,-11,3,-2,-13,6,-4,-8
2704,-9,-12,3,-1,-14,7,-3,-8
2705,-8,-12,2,-1,-16,10,-2,-8
2706,-7,-12,1,-1,-16,13,-2,-7
2707,-7,-11,-1,-3,-16,15,-3,-7
2708,-6,-10,-2,-4,-15,14,-3,-6
2709,-6,-10,-3,-5,-13,11,-3,-6
2710,-7,-9,-4,-6,-10,7,-2,-6
2711,-8,-8,-3,-7,-8,4,-2,-5
2712,-8,-7,-3,-6,-5,3,-2,-3
2713,-7,-6,-4,-5,-3,4,-1,-2
2714,-6,-5,-5,-4,-1,3,-1,0
2715,-5,-4,-5,-3,1,3,0,3
2716,-4,-3,-5,-2,1,3,0,5
2717,-3,-2,-5,-2,0,4,0,6
2718,-4,-2,-4,-2,-2,5,-1,5
2719,-5,-2,-3,-2,-5,7,-3,4
2720,-7,-4,0,-3,-8,9,-4,2
2721,-9,-6,2,-3,-11,11,-6,0
2722,-11,-8,5,-3,-13,13,-7,-3
2723,-12,-11,7,-3,-15,14,-7,-6
2724,-13,-13,8,-2,-16,14,-7,-8
2725,-13,-14,9,-2,-17,11,-7,-11
2726,-13,-14,8,-2,-17,8,-6,-12
2727,-13,-13,8,-2,-16,7,-6,-11
2728,-12,-11,8,-3,-16,8,-6,-10
2729,-12,-9,7,-3,-14,11,-6,-9
2730,-12,-6,6,-4,-13,16,-6,-7
2731,-12,-4,4,-5,-11,20,-5,-6
2732,-12,-3,3,-5,-10,22,-5,-6
2733,-11,-3,1,-5,-9,21,-4,-6
2734,-11,-3,1,-4,-10,19,-4,-6
2735,-10,-4,0,-2,-12,17,-4,-6
2736,-9,-5,1,2,-16,16,-4,-6
2737,-8,-5,1,6,-20,13,-3,-6
2738,-6,-5,1,10,-23,9,-2,-5
2739,-5,-5,1,13,-25,5,-2,-5
2740,-3,-5,1,14,-25,3,-2,-5
2741,-2,-6,2,13,-24,1,-1,-5
2742,-1,-6,3,11,-23,1,-1,-4
2743,0,-7,4,9,-21,2,-1,-3
2744,-1,-7,5,7,-19,4,0,-2
2745,-1,-7,5,7,-17,7,0,0
2746,-3,-7,2,7,-16,11,1,0
2747,-4,-8,-2,6,-16,12,0,-1
2748,-5,-9,-6,6,-16,12,-1,-2
2749,-6,-10,-9,4,-16,8,-1,-4
2750,-7,-11,-9,3,-16,5,-2,-5
2751,-7,-12,-7,1,-16,2,-2,-7
2752,-7,-13,-4,0,-14,-1,-2,-8
2753,-6,-13,-2,-1,-13,-3,-2,-8
2754,-6,-14,0,-2,-12,-4,-2,-9
2755,-6,-15,1,-3,-10,-6,-2,-8
2756,-6,-15,1,-2,-10,-8,-2,-8
2757,-6,-14,1,-2,-9,-8,-2,-6
2758,-6,-12,3,-1,-8,-6,-2,-4
2759,-5,-10,4,1,-7,-3,-1,-1
2760,-5,-8,4,0,-5,-1,1,3
2761,-4,-6,2,-1,-3,1,1,5
2762,-3,-4,-1,-4,-1,2,2,6
2763,-2,-4,-4,-7,1,3,2,7
2764,-1,-3,-6,-11,2,4,1,7
2765,0,-3,-7,-13,2,4,1,7
2766,1,-2,-6,-15,3,4,1,8
2767,2,-1,-4,-15,5,5,2,9
2768,3,1,-2,-13,6,5,3,11
2769,3,1,0,-11,8,7,3,12
2770,4,1,2,-9,8,8,3,13
2771,4,0,3,-7,9,7,3,13
2772,4,-1,3,-5,8,5,3,13
2773,4,-2,5,-5,7,5,3,13
2774,4,-3,6,-5,6,6,2,14
2775,3,-4,6,-6,4,6,2,14
2776,3,-5,7,-7,3,6,1,13
2777,3,-6,7,-8,2,6,0,13
2778,2,-6,8,-9,2,6,-1,12
2779,2,-5,8,-8,3,5,-1,12
2780,2,-3,7,-7,4,5,-1,12
2781,3,-1,7,-5,4,7,0,12
2782,4,0,5,-3,3,9,1,12
2783,5,0,4,-2,3,11,1,10
2784,6,-1,2,-2,1,12,2,8
2785,6,-2,0,-2,-1,14,2,6
2786,6,-3,-1,-3,-3,17,1,3
2787,6,-3,-1,-3,-5,21,1,1
2788,6,-4,-1,-3,-6,24,1,0
2789,5,-4,-1,-3,-6,26,0,0
2790,4,-4,0,-3,-6,27,1,0
2791,4,-4,2,-3,-6,26,1,1
2792,2,-4,4,-2,-5,24,1,0
2793,1,-5,7,-2,-5,23,2,-1
2794,-1,-6,10,-2,-6,22,2,-2
2795,-3,-7,14,-2,-7,22,2,-4
2796,-6,-8,15,-2,-7,20,2,-4
2797,-7,-8,15,-2,-8,17,2,-4
2798,-8,-8,14,-2,-8,13,2,-3
2799,-8,-8,13,-2,-8,11,2,-2
2800,-7,-8,11,-2,-7,10,2,1
2801,-6,-6,10,-2,-6,11,1,2
2802,-6,-5,11,-3,-4,13,0,3
2803,-6,-5,12,-4,-2,15,-1,3
2804,-5,-5,13,-5,-1,16,-1,2
2805,-5,-5,13,-6,0,15,-1,1
2806,-4,-6,12,-5,0,13,0,1
2807,-2,-5,11,-5,0,10,1,1
2808,0,-4,8,-4,1,8,2,2
2809,1,-3,6,-4,1,7,2,4
2810,2,-1,4,-3,1,5,3,5
2811,3,1,3,-4,1,2,3,6
2812,3,2,2,-4,1,0,4,5
2813,3,3,1,-4,2,-3,3,5
2814,2,4,1,-5,2,-4,3,4
2815,0,5,0,-6,3,-4,1,3
2816,-2,6,0,-7,3,-4,-1,3
2817,-4,7,0,-7,4,-4,-2,4
2818,-6,7,-1,-7,4,-7,-3,3
2819,-7,7,-1,-8,4,-10,-3,1
2820,-8,7,-1,-8,4,-11,-3,-2
2821,-8,5,-1,-8,3,-9,-2,-5
2822,-7,2,0,-9,3,-6,-2,-8
2823,-6,0,0,-9,2,-3,-2,-10
2824,-5,-2,2,-9,1,0,-1,-12
2825,-4,-4,3,-10,-1,1,-1,-12
2826,-4,-5,4,-11,-2,1,-1,-13
2827,-3,-6,4,-11,-3,-1,-1,-14
2828,-3,-6,3,-12,-4,-1,-1,-15
2829,-2,-7,3,-13,-4,0,-2,-15
2830,-1,-8,2,-13,-4,0,-1,-15
2831,1,-8,1,-13,-4,-1,-1,-14
2832,2,-8,-1,-12,-2,-1,0,-13
2833,4,-7,0,-12,0,-2,1,-11
2834,5,-6,1,-11,3,-2,1,-8
2835,5,-4,1,-10,6,-3,1,-5
2836,4,-2,2,-9,8,-6,1,-3
2837,2,0,2,-7,10,-9,1,-1
2838,-1,2,2,-6,10,-14,0,0
2839,-4,3,2,-5,10,-17,0,-1
2840,-6,4,1,-4,9,-18,-1,-2
2841,-7,4,1,-3,8,-17,-1,-3
2842,-7,4,1,-4,8,-15,-1,-3
2843,-8,4,1,-5,8,-13,-1,-3
2844,-7,3,0,-6,9,-11,-1,-3
2845,-6,1,-2,-8,9,-9,-1,-4
2846,-5,-1,-3,-9,8,-9,-2,-5
2847,-3,-3,-5,-10,7,-8,-2,-7
2848,-1,-3,-6,-11,6,-7,-2,-9
2849,0,-4,-6,-11,6,-7,-2,-11
2850,1,-3,-7,-10,5,-8,-2,-12
2851,1,-3,-8,-10,5,-10,-2,-12
2852,2,-3,-9,-9,5,-11,-1,-12
2853,3,-3,-11,-9,6,-13,0,-12
2854,4,-4,-11,-9,6,-14,0,-12
2855,5,-4,-9,-10,7,-15,1,-11
2856,5,-4,-7,-10,8,-13,2,-9
2857,6,-3,-4,-9,8,-9,2,-7
2858,6,-2,-1,-9,7,-4,2,-6
2859,6,-2,1,-8,6,1,2,-6
2860,5,-3,2,-8,4,3,2,-7
2861,4,-4,4,-8,2,3,1,-9
2862,2,-7,5,-8,0,4,0,-12
2863,1,-8,6,-9,-2,5,-1,-14
2864,1,-9,7,-9,-3,6,-2,-15
2865,2,-9,6,-8,-3,6,-2,-16
2866,3,-9,4,-7,-3,5,-1,-17
2867,4,-8,3,-6,-2,2,0,-17
2868,5,-8,1,-5,-2,-1,2,-16
2869,7,-9,-1,-4,-3,-4,3,-15
2870,8,-9,-3,-3,-4,-7,3,-14
2871,8,-10,-5,-3,-4,-9,4,-14
2872,8,-12,-7,-3,-5,-11,4,-16
2873,8,-13,-9,-4,-4,-15,4,-17
2874,8,-14,-10,-4,-3,-21,4,-17
2875,8,-13,-12,-3,-2,-25,4,-16
2876,8,-13,-14,-3,-1,-27,5,-15
2877,8,-11,-15,-1,1,-27,5,-13
2878,8,-10,-16,1,1,-26,6,-12
2879,8,-9,-16,3,1,-23,7,-12
2880,7,-8,-16,4,1,-22,7,-12
2881,7,-8,-14,4,2,-23,6,-13
2882,6,-9,-12,3,1,-26,5,-15
2883,4,-9,-10,2,1,-27,4,-17
2884,3,-10,-8,1,0,-24,2,-19
2885,1,-11,-6,1,-2,-19,1,-20
2886,0,-11,-4,1,-3,-15,0,-21
2887,0,-11,-2,2,-4,-14,-1,-20
2888,1,-10,-2,3,-4,-14,0,-19
2889,3,-10,-2,4,-3,-17,2,-17
2890,5,-9,-3,5,-2,-20,3,-14
2891,6,-8,-3,7,-1,-20,4,-11
2892,7,-8,-3,8,-1,-18,5,-7
2893,8,-7,-3,8,-1,-15,5,-4
2894,8,-7,-2,8,-1,-13,5,-2
2895,8,-7,-1,8,-1,-12,4,-2
2896,8,-7,0,7,0,-12,4,-3
2897,7,-7,1,6,1,-11,3,-4
2898,7,-8,1,5,1,-11,2,-5
2899,7,-8,0,4,2,-11,2,-5
2900,7,-8,-1,3,2,-12,1,-5
2901,8,-8,-3,2,4,-14,1,-4
2902,8,-8,-5,1,6,-15,1,-2
2903,9,-6,-6,0,8,-15,2,-1
2904,8,-4,-7,0,9,-13,2,0
2905,8,-3,-6,0,9,-11,3,2
2906,7,-2,-4,0,8,-9,2,2
2907,5,-3,-3,0,7,-9,1,2
2908,4,-4,-2,1,4,-9,0,2
2909,2,-6,-1,3,2,-10,-1,1
2910,2,-7,0,4,1,-9,-1,1
2911,2,-7,0,5,1,-7,-1,1
2912,3,-7,0,5,2,-6,0,2
2913,5,-7,0,5,2,-5,1,3
2914,7,-7,2,5,3,-5,3,4
2915,9,-7,3,5,3,-6,4,5
2916,9,-6,5,6,3,-7,6,5
2917,10,-5,6,7,3,-9,7,4
2918,9,-5,5,7,4,-10,8,3
2919,8,-5,4,7,4,-9,8,1
2920,6,-6,1,6,4,-8,7,-1
2921,5,-7,-1,5,5,-8,7,-3
2922,5,-8,-2,5,5,-9,6,-4
2923,6,-9,-2,4,6,-11,6,-4
2924,7,-8,-2,4,6,-15,6,-4
2925,9,-8,0,4,7,-18,6,-3
2926,11,-7,2,4,7,-19,7,-2
2927,11,-6,4,3,8,-17,7,-1
2928,10,-5,5,3,8,-16,6,0
2929,8,-5,7,2,7,-16,6,2
2930,5,-6,8,1,6,-16,4,2
2931,3,-7,9,0,5,-17,3,2
2932,0,-9,9,-1,3,-17,1,1
2933,-2,-11,10,-2,1,-16,-1,-1
2934,-2,-12,10,-3,-1,-16,-3,-1
2935,-2,-12,11,-3,-2,-15,-3,-1
2936,0,-12,12,-3,-2,-14,-3,-1
2937,2,-11,13,-2,-2,-14,-3,-1
2938,4,-11,13,-1,-3,-14,-2,-2
2939,5,-12,12,-1,-4,-12,-2,-3
2940,5,-12,11,-1,-4,-10,-1,-5
2941,4,-11,11,0,-4,-6,-1,-5
2942,4,-10,11,0,-3,-2,-1,-5
2943,4,-9,11,0,-1,0,0,-4
2944,5,-9,10,0,1,0,1,-4
2945,6,-9,7,1,1,-2,2,-3
2946,7,-10,4,1,1,-5,3,-3
2947,9,-10,2,2,0,-7,5,-2
2948,11,-10,2,3,-1,-6,6,-1
2949,12,-9,3,4,-2,-4,6,1
2950,13,-9,4,5,-3,-2,6,2
2951,12,-9,5,4,-4,0,5,1
2952,10,-10,5,3,-5,0,3,-1
2953,8,-12,5,2,-7,1,2,-3
2954,6,-13,5,0,-8,4,0,-5
2955,4,-14,5,-2,-9,6,-2,-6
2956,3,-14,6,-3,-8,8,-3,-6
2957,2,-14,8,-4,-8,10,-4,-5
2958,1,-14,10,-4,-8,11,-5,-4
2959,-1,-14,12,-5,-8,12,-5,-3
2960,-3,-13,13,-5,-9,12,-6,-4
2961,-4,-12,14,-5,-10,12,-6,-4
2962,-6,-11,13,-6,-10,11,-6,-5
2963,-6,-10,11,-6,-10,9,-7,-5
2964,-6,-8,9,-6,-9,8,-7,-4
2965,-7,-7,8,-5,-7,8,-6,-2
2966,-7,-7,8,-5,-6,7,-6,-1
2967,-7,-7,8,-4,-5,7,-5,-1
2968,-7,-8,8,-4,-3,7,-4,-2
2969,-7,-9,7,-4,-2,7,-3,-2
2970,-6,-9,6,-3,-2,7,-2,-3
2971,-5,-9,5,-3,-2,5,-1,-3
2972,-4,-9,4,-3,-2,3,-1,-3
2973,-4,-9,4,-3,-3,4,-1,-3
2974,-3,-9,6,-4,-3,5,-2,-2
2975,-3,-10,8,-4,-3,7,-3,-2
2976,-3,-10,10,-5,-3,10,-4,-3
2977,-4,-11,10,-5,-2,11,-5,-3
2978,-5,-11,8,-5,-2,9,-5,-4
2979,-7,-10,5,-5,-2,5,-6,-4
2980,-8,-9,4,-4,-2,1,-6,-4
2981,-10,-8,2,-4,-1,-2,-6,-3
2982,-11,-6,0,-3,0,-6,-6,-1
2983,-11,-4,-3,-2,1,-12,-6,1
2984,-11,-3,-6,-1,2,-17,-6,2
2985,-11,-2,-9,-1,2,-20,-5,3
2986,-10,-2,-10,1,2,-21,-5,3
2987,-8,-2,-10,2,1,-22,-4,3
2988,-7,-2,-9,2,0,-20,-3,2
2989,-5,-2,-7,3,-1,-18,-1,1
2990,-4,-3,-7,3,-3,-17,0,-1
2991,-4,-5,-8,2,-4,-17,0,-3
2992,-4,-7,-8,2,-5,-19,1,-6
2993,-5,-8,-8,2,-6,-20,1,-8
2994,-5,-8,-7,2,-6,-19,1,-9
2995,-5,-8,-7,3,-6,-16,2,-9
2996,-4,-7,-7,4,-5,-13,2,-7
2997,-3,-6,-7,5,-3,-10,2,-4
2998,-2,-4,-7,6,0,-10,2,-1
2999,-1,-1,-7,6,3,-12,2,3
3000,0,3,-6,6,6,-15,2,7
3001,0,5,-6,5,7,-17,2,10
3002,-1,7,-6,4,7,-17,1,11
3003,-2,6,-6,3,6,-15,-1,10
3004,-4,5,-6,1,4,-13,-2,8
3005,-5,2,-6,-1,3,-12,-4,5
3006,-7,0,-5,-2,3,-13,-5,3
3007,-8,-2,-5,-3,3,-15,-6,2
3008,-8,-4,-4,-3,4,-17,-6,1
3009,-7,-5,-4,-2,5,-20,-5,1
3010,-6,-6,-4,0,6,-23,-4,2
3011,-4,-7,-5,2,7,-27,-3,2
3012,-3,-8,-5,4,7,-30,-1,3
3013,-2,-9,-3,5,5,-32,1,3
3014,-1,-10,0,6,3,-32,2,3
3015,-1,-11,2,6,1,-27,2,2
3016,-1,-11,4,6,-1,-21,2,2
3017,-1,-12,5,5,-3,-16,1,0
3018,-1,-12,5,5,-4,-12,1,-1
3019,0,-12,4,5,-4,-12,1,-1
3020,1,-10,2,5,-3,-14,2,0
3021,2,-8,1,5,-3,-17,3,1
3022,2,-7,0,5,-2,-20,3,3
3023,2,-6,-1,5,-2,-20,3,4
3024,3,-6,-1,4,-2,-19,3,4
3025,3,-7,0,3,-2,-16,2,4
3026,3,-8,1,2,-3,-13,1,3
3027,3,-9,2,2,-3,-11,0,2
3028,2,-9,4,2,-3,-10,-1,1
3029,2,-10,5,3,-3,-10,-1,-1
3030,2,-10,4,3,-3,-12,-1,-3
3031,1,-9,3,4,-2,-16,-2,-5
3032,-1,-9,1,4,-2,-18,-2,-7
3033,-2,-8,-1,5,-3,-18,-1,-8
3034,-2,-7,-2,6,-4,-16,-1,-9
3035,-2,-7,-3,7,-5,-13,0,-9
3036,-2,-6,-2,7,-7,-10,0,-8
3037,-2,-5,-2,8,-7,-10,0,-7
3038,-1,-4,-2,9,-8,-11,0,-6
3039,-1,-2,-3,9,-9,-13,0,-5
3040,-2,-1,-4,9,-9,-15,0,-4
3041,-3,1,-4,8,-8,-16,0,-3
3042,-5,2,-4,7,-7,-17,-1,-1
3043,-7,3,-3,6,-6,-14,-1,2
3044,-8,3,-2,5,-4,-10,-2,4
3045,-8,3,-1,4,-4,-4,-2,7
3046,-8,3,0,3,-3,1,-2,8
3047,-7,3,-1,3,-3,4,-1,8
3048,-5,4,-2,2,-3,6,0,8
3049,-4,4,-3,2,-3,6,0,7
3050,-3,5,-3,1,-3,5,0,5
3051,-3,4,-3,1,-3,4,0,4
3052,-3,3,-3,1,-4,3,-1,2
3053,-4,1,-3,1,-5,2,-2,0
3054,-6,-1,-4,0,-6,1,-3,-2
3055,-7,-2,-4,0,-7,-1,-4,-4
3056,-8,-3,-4,1,-7,-3,-4,-6
3057,-8,-4,-3,2,-7,-3,-4,-7
3058,-8,-3,-3,3,-6,-3,-3,-7
3059,-7,-3,-2,4,-5,-3,-2,-7
3060,-5,-2,-2,5,-2,-3,-2,-6
3061,-4,-2,-2,5,1,-3,-1,-4
3062,-3,-2,-1,5,3,-4,-1,-3
3063,-2,-3,0,4,4,-5,-1,-3
3064,-2,-4,1,2,4,-6,-1,-3
3065,-2,-5,1,1,2,-6,-2,-4
3066,-3,-5,1,0,0,-4,-2,-4
3067,-3,-6,1,-1,-3,0,-3,-5
3068,-4,-5,0,0,-5,4,-2,-5
3069,-4,-3,-1,1,-7,6,-2,-4
3070,-4,-2,-3,2,-8,6,-1,-3
3071,-4,0,-4,3,-8,6,-1,-2
3072,-5,1,-5,4,-9,6,-1,-2
3073,-6,2,-5,4,-9,6,-2,-1
3074,-7,3,-5,4,-9,6,-2,-1
3075,-8,2,-5,3,-9,5,-3,-2
3076,-9,2,-6,2,-9,3,-3,-4
3077,-10,0,-5,1,-8,0,-4,-5
3078,-10,-2,-5,0,-6,-2,-4,-7
3079,-11,-4,-4,-1,-4,-2,-4,-8
3080,-12,-6,-4,-2,-3,-1,-4,-9
3081,-13,-6,-3,-3,-2,2,-4,-10
3082,-15,-5,-2,-4,-2,3,-5,-10
3083,-17,-3,-2,-4,-2,3,-5,-11
3084,-18,-1,-2,-5,-2,2,-5,-11
3085,-18,1,-2,-5,-3,1,-5,-12
3086,-17,3,-3,-5,-4,0,-5,-11
3087,-17,5,-5,-5,-4,-1,-5,-11
3088,-16,6,-5,-5,-4,1,-6,-9
3089,-16,8,-6,-5,-4,4,-7,-7
3090,-16,8,-6,-5,-3,7,-7,-6
3091,-16,8,-7,-5,-1,9,-7,-5
3092,-16,7,-8,-5,0,8,-7,-4
3093,-16,7,-10,-5,0,5,-7,-4
3094,-14,5,-12,-4,-1,1,-6,-5
3095,-13,4,-13,-2,-2,-2,-5,-5
3096,-11,4,-11,-1,-3,-4,-3,-6
3097,-9,3,-7,1,-3,-3,-2,-6
3098,-8,3,-3,2,-4,-2,-2,-5
3099,-6,3,1,3,-4,-2,-1,-5
3100,-6,3,4,3,-4,-2,-1,-4
3101,-6,2,6,3,-4,-4,-1,-4
3102,-6,0,6,3,-5,-5,-1,-4
3103,-7,-3,6,2,-6,-4,-2,-4
3104,-9,-4,6,1,-6,-1,-2,-4
3105,-10,-5,6,1,-6,1,-3,-5
3106,-11,-6,6,1,-5,4,-3,-5
3107,-11,-5,6,1,-4,5,-2,-5
3108,-11,-5,6,1,-5,3,-1,-5
3109,-10,-4,6,1,-6,0,-1,-5
3110,-10,-3,5,1,-7,-2,-1,-5
3111,-10,-2,4,0,-8,1,-1,-4
3112,-10,-1,2,0,-8,5,-1,-3
3113,-11,-1,0,-1,-9,9,-2,-2
3114,-11,0,-2,-1,-9,12,-2,-2
3115,-11,1,-2,-1,-8,11,-2,-2
3116,-11,1,-3,-1,-7,9,-2,-1
3117,-11,1,-2,-1,-7,5,-2,-1
3118,-10,1,-2,0,-6,2,-2,0
3119,-9,1,-3,1,-6,1,-1,1
3120,-8,1,-3,2,-6,0,0,2
3121,-8,0,-2,2,-6,-1,0,2
3122,-8,-1,0,2,-7,-3,0,1
3123,-9,-2,2,2,-8,-4,-1,0
3124,-9,-3,5,1,-9,-4,-2,0
3125,-10,-3,7,1,-9,-3,-2,0
3126,-11,-4,8,2,-9,-3,-3,0
3127,-11,-5,8,2,-8,-3,-3,0
3128,-12,-6,8,3,-7,-2,-3,0
3129,-13,-7,6,2,-7,-2,-4,0
3130,-14,-7,5,1,-7,-2,-4,0
3131,-14,-6,3,1,-8,-2,-5,0
3132,-14,-4,1,0,-9,-1,-4,1
3133,-13,-1,0,0,-9,1,-3,2
3134,-13,1,-1,1,-9,2,-2,3
3135,-12,3,-1,2,-9,3,-2,4
3136,-11,4,-1,2,-8,3,-1,4
3137,-11,5,-1,2,-8,3,-2,3
3138,-10,5,0,2,-9,5,-2,3
3139,-9,5,1,2,-10,8,-3,2
3140,-9,4,1,2,-10,11,-2,0
3141,-8,3,1,2,-10,13,-1,-1
3142,-7,2,1,2,-9,13,0,-1
3143,-6,2,1,1,-7,13,1,0
3144,-5,2,0,1,-5,12,2,2
3145,-4,2,-1,1,-2,11,2,3
3146,-3,3,-2,1,0,10,3,5
3147,-3,3,-3,2,2,10,4,6
3148,-2,4,-4,2,3,10,5,7
3149,-2,4,-4,2,2,10,5,8
3150,-3,3,-4,2,2,12,4,8
3151,-4,3,-3,0,1,13,4,8
3152,-5,2,-2,-2,0,13,3,6
3153,-6,2,-2,-3,-1,12,2,2
3154,-7,1,-2,-5,-2,10,1,-2
3155,-7,0,-2,-5,-3,9,0,-6
3156,-6,-1,-2,-5,-4,9,0,-8
3157,-5,-2,-2,-5,-5,9,-1,-9
3158,-4,-2,0,-5,-5,10,-1,-8
3159,-4,-2,1,-6,-4,10,-1,-7
3160,-4,-2,2,-6,-2,10,-2,-7
3161,-4,-2,3,-7,-1,10,-3,-5
3162,-5,-1,4,-7,1,9,-3,-4
3163,-5,-1,6,-8,2,8,-4,-3
3164,-4,0,7,-8,4,7,-4,-1
3165,-3,1,9,-9,5,6,-4,-1
3166,-2,0,9,-9,6,6,-4,-1
3167,-1,0,9,-9,6,6,-4,-3
3168,-1,-1,9,-8,6,8,-4,-5
3169,-1,-2,9,-8,5,10,-3,-6
3170,-2,-3,9,-8,4,13,-3,-8
3171,-4,-5,10,-9,2,17,-4,-9
3172,-5,-6,10,-10,1,19,-5,-10
3173,-7,-7,11,-12,-1,21,-6,-11
3174,-8,-8,12,-14,-2,21,-6,-11
3175,-9,-8,14,-15,-3,19,-6,-11
3176,-9,-8,16,-15,-4,18,-6,-11
3177,-10,-7,16,-14,-4,19,-6,-9
3178,-10,-6,16,-12,-4,20,-5,-7
3179,-11,-4,16,-10,-4,21,-4,-3
3180,-11,-2,16,-8,-3,22,-4,0
3181,-10,0,17,-6,-2,23,-4,3
3182,-10,2,19,-5,-1,24,-4,5
3183,-9,3,22,-4,1,24,-3,5
3184,-8,4,24,-4,2,25,-3,4
3185,-7,4,25,-3,2,27,-2,3
3186,-6,5,24,-2,2,28,-1,1
3187,-4,5,23,-1,1,29,0,-1
3188,-4,5,20,0,0,30,0,-2
3189,-4,4,19,0,-2,30,0,-4
3190,-4,3,18,0,-4,28,-1,-6
3191,-5,1,19,-1,-6,26,-2,-8
3192,-5,-1,20,-1,-7,24,-2,-9
3193,-6,-2,22,-1,-9,22,-2,-10
3194,-7,-4,23,-1,-11,20,-2,-11
3195,-7,-5,24,1,-12,19,-2,-11
3196,-8,-5,25,2,-13,19,-2,-11
3197,-8,-5,26,3,-13,18,-2,-10
3198,-8,-5,27,3,-13,18,-2,-9
3199,-8,-5,27,3,-12,17,-2,-9
3200,-8,-5,26,3,-10,16,-2,-7
3201,-8,-4,24,2,-8,13,-3,-6
3202,-7,-3,23,1,-7,11,-3,-5
3203,-7,-3,22,-1,-6,11,-3,-5
3204,-6,-3,21,-2,-5,14,-3,-5
3205,-5,-4,20,-2,-4,18,-3,-6
3206,-4,-6,19,-1,-3,20,-3,-6
3207,-3,-8,18,-1,-4,21,-3,-7
3208,-3,-9,18,1,-5,19,-3,-7
3209,-2,-10,18,1,-5,15,-2,-6
3210,-1,-10,19,2,-5,12,-1,-5
3211,-1,-9,20,2,-5,10,0,-3
3212,-1,-8,21,2,-5,10,0,-2
3213,-1,-7,21,2,-5,11,1,1
3214,-1,-6,21,2,-5,12,0,2
3215,-2,-4,20,1,-6,13,0,3
3216,-3,-3,19,0,-7,14,-1,4
3217,-3,-2,17,0,-8,14,-1,5
3218,-3,-2,14,0,-8,15,-2,5
3219,-4,-2,11,0,-8,14,-2,6
3220,-4,-2,10,0,-8,11,-3,6
3221,-4,-3,9,0,-6,8,-3,7
3222,-4,-3,8,-1,-5,7,-3,7
3223,-2,-4,8,-1,-4,7,-2,8
3224,-1,-4,7,0,-4,7,-1,9
3225,1,-3,7,1,-5,8,1,9
3226,3,-2,6,1,-7,9,2,9
3227,4,-1,6,2,-8,10,3,8
3228,4,1,5,3,-8,10,4,9
3229,4,3,5,3,-7,11,4,10
3230,4,5,5,5,-6,12,5,11
3231,5,7,5,7,-4,14,6,13
3232,6,8,5,9,-2,14,6,14
3233,8,8,6,11,-1,13,7,16
3234,10,8,7,13,0,12,7,17
3235,11,7,7,14,1,12,7,18
3236,13,7,8,14,2,12,7,18
3237,13,7,9,13,3,11,7,17
3238,14,6,11,12,4,12,6,15
3239,13,4,12,11,4,15,6,13
3240,12,3,15,10,4,17,5,11
3241,10,1,17,9,4,18,3,10
3242,9,0,18,9,3,19,1,9
3243,8,-1,19,8,3,19,0,8
3244,8,-2,18,7,2,18,-1,8
3245,8,-3,17,7,1,16,-1,7
3246,9,-4,15,6,1,14,-1,7
3247,9,-5,13,5,-1,12,0,6
3248,9,-6,10,4,-2,11,1,5
3249,8,-7,8,3,-4,11,1,4
3250,8,-7,7,3,-7,11,1,3
3251,7,-8,7,2,-9,12,0,2
3252,6,-10,7,1,-11,13,0,0
3253,4,-11,8,1,-12,13,-1,-1
3254,3,-12,9,1,-13,13,-1,-2
3255,1,-12,9,0,-12,13,-2,-3
3256,0,-12,8,0,-12,12,-2,-2
3257,-1,-11,6,-1,-11,11,-2,-2
3258,-2,-10,5,-2,-10,8,-3,-1
3259,-3,-9,3,-3,-9,5,-3,-1
3260,-5,-9,2,-4,-8,2,-4,-1
3261,-7,-9,1,-5,-6,0,-5,-1
3262,-8,-9,1,-5,-4,0,-7,-1
3263,-10,-8,1,-6,-3,2,-8,-1
3264,-10,-7,1,-6,-2,4,-9,-1
3265,-10,-6,2,-5,-1,5,-9,-1
3266,-10,-5,3,-5,0,4,-8,-1
3267,-9,-4,3,-4,1,3,-7,-2
3268,-8,-5,0,-4,0,1,-6,-2
3269,-7,-6,-5,-4,0,-2,-6,-3
3270,-6,-8,-10,-4,-1,-5,-6,-3
3271,-6,-10,-13,-4,-2,-7,-7,-4
3272,-6,-12,-13,-5,-4,-8,-7,-5
3273,-7,-14,-9,-5,-6,-6,-8,-7
3274,-7,-17,-5,-6,-7,-3,-8,-9
3275,-7,-19,-1,-6,-8,0,-8,-10
3276,-7,-20,2,-7,-8,2,-9,-11
3277,-8,-20,3,-7,-7,3,-9,-11
3278,-9,-20,4,-8,-6,3,-9,-12
3279,-10,-19,6,-8,-5,1,-9,-13
3280,-11,-18,7,-8,-5,0,-9,-14
3281,-12,-17,6,-7,-7,0,-8,-15
3282,-12,-17,4,-7,-10,2,-7,-16
3283,-12,-16,0,-7,-13,3,-7,-17
3284,-13,-16,-4,-7,-16,4,-6,-18
3285,-14,-17,-6,-7,-19,4,-5,-17
3286,-14,-17,-7,-7,-20,2,-5,-17
3287,-14,-18,-7,-7,-20,-3,-4,-16
3288,-14,-18,-7,-6,-17,-9,-4,-14
3289,-13,-17,-6,-6,-13,-14,-4,-12
3290,-12,-14,-5,-5,-8,-17,-3,-9
3291,-11,-11,-3,-4,-2,-18,-2,-6
3292,-10,-8,-1,-2,2,-17,-2,-2
3293,-8,-4,1,-1,4,-14,-1,1
3294,-7,-1,3,1,3,-10,0,3
3295,-6,0,5,1,0,-5,1,3
3296,-5,1,6,1,-3,-1,0,3
3297,-4,1,6,1,-6,0,-1,2
3298,-4,1,5,-1,-9,1,-2,1
3299,-3,0,4,-2,-11,1,-3,1
3300,-3,-1,1,-3,-12,2,-3,1
3301,-4,-3,-2,-4,-12,1,-3,1
3302,-5,-4,-5,-4,-11,-1,-3,0
3303,-6,-5,-7,-4,-11,-3,-3,-1
3304,-6,-6,-9,-3,-11,-4,-2,-2
3305,-7,-6,-9,-3,-10,-7,-2,-3
3306,-7,-6,-9,-3,-9,-10,-1,-4
3307,-7,-6,-8,-2,-7,-14,-1,-4
3308,-7,-5,-8,-2,-4,-17,0,-4
3309,-8,-3,-8,-1,-1,-20,0,-4
3310,-8,-1,-7,-1,1,-21,0,-3
3311,-9,2,-7,-1,2,-22,0,-4
3312,-9,5,-7,-1,2,-20,0,-4
3313,-9,7,-7,-1,1,-15,0,-5
3314,-9,9,-7,0,-1,-10,-1,-6
3315,-9,9,-6,1,-3,-6,-2,-7
3316,-9,10,-3,1,-5,-2,-2,-8
3317,-10,9,-1,1,-7,1,-3,-8
3318,-10,9,1,0,-7,1,-3,-7
3319,-11,7,2,-2,-7,-1,-3,-6
3320,-11,6,1,-4,-6,-4,-3,-5
3321,-11,5,-1,-4,-6,-5,-3,-4
3322,-10,3,-3,-4,-5,-6,-3,-4
3323,-10,3,-4,-3,-5,-6,-2,-4
3324,-10,3,-6,-1,-4,-5,-2,-4
3325,-9,4,-7,1,-2,-5,-1,-3
3326,-8,5,-9,3,-1,-5,1,-2
3327,-7,7,-9,4,1,-5,1,-1
3328,-7,9,-9,4,2,-6,1,1
3329,-6,11,-9,4,3,-7,2,2
3330,-5,12,-9,4,4,-8,2,2
3331,-5,13,-9,4,6,-7,2,3
3332,-4,14,-9,4,7,-8,3,3
3333,-3,13,-8,5,9,-8,4,4
3334,-2,13,-7,6,10,-9,4,5
3335,-1,11,-6,7,10,-10,5,4
3336,-1,10,-6,7,9,-9,4,3
3337,0,9,-6,6,6,-8,4,1
3338,0,7,-7,5,3,-5,3,-2
3339,1,5,-7,4,-2,-3,3,-5
3340,0,3,-6,3,-6,-2,3,-8
3341,-1,1,-6,2,-10,-1,2,-11
3342,-2,0,-6,2,-12,2,1,-12
3343,-4,0,-6,2,-14,6,1,-11
3344,-5,1,-6,2,-15,10,0,-11
3345,-5,2,-7,2,-15,13,-1,-10
3346,-4,2,-9,2,-14,15,-1,-9
3347,-4,3,-10,2,-12,15,0,-9
3348,-3,3,-10,2,-10,13,1,-8
3349,-3,4,-9,2,-8,11,1,-7
3350,-4,4,-7,2,-5,10,1,-8
3351,-5,3,-4,2,-3,8,1,-9
3352,-5,1,-1,2,-1,6,1,-11
3353,-5,-1,1,2,0,5,1,-12
3354,-4,-4,2,2,1,5,1,-14
3355,-4,-7,2,1,-1,5,0,-15
3356,-3,-8,3,0,-2,7,-1,-15
3357,-4,-9,4,-1,-3,7,-3,-16
3358,-5,-9,4,-1,-3,9,-3,-16
3359,-5,-8,5,-1,-3,11,-3,-16
3360,-6,-7,4,-1,-2,13,-3,-14
3361,-6,-6,3,0,-1,14,-3,-12
3362,-6,-5,2,1,-2,16,-2,-11
3363,-6,-3,0,1,-3,16,-1,-9
3364,-6,0,-1,1,-5,16,-1,-8
3365,-5,2,-2,0,-7,17,-1,-7
3366,-5,3,-4,0,-8,18,0,-6
3367,-4,3,-6,0,-9,19,0,-5
3368,-3,4,-7,0,-9,20,0,-4
3369,-2,4,-7,0,-9,19,0,-4
3370,-2,4,-6,0,-7,17,0,-3
3371,-2,5,-5,0,-5,14,0,-2
3372,-1,6,-5,0,-2,11,0,-1
3373,0,8,-6,1,0,10,1,-1
3374,1,9,-8,3,2,9,2,0
3375,2,10,-11,5,4,8,3,1
3376,2,11,-13,6,4,6,4,2
3377,2,11,-14,6,3,4,4,1
3378,1,9,-14,5,2,0,3,0
3379,1,8,-13,4,0,-4,2,-2
3380,0,6,-13,3,-2,-5,1,-4
3381,1,4,-12,3,-3,-5,1,-6
3382,1,2,-12,3,-5,-3,1,-7
3383,2,1,-11,3,-7,-3,2,-8
3384,2,1,-10,3,-9,-3,2,-9
3385,2,1,-8,3,-11,-3,1,-10
3386,1,1,-6,2,-12,-3,0,-11
3387,1,1,-5,2,-13,-4,-1,-12
3388,0,2,-5,3,-13,-5,-1,-13
3389,0,2,-5,4,-13,-5,-1,-13
3390,1,3,-5,5,-12,-6,0,-14
3391,1,5,-6,5,-11,-8,1,-14
3392,2,6,-6,4,-10,-9,2,-14
3393,2,6,-7,3,-8,-10,2,-14
3394,2,6,-7,1,-8,-9,3,-14
3395,1,6,-6,-1,-8,-7,2,-14
3396,-1,6,-4,-2,-8,-4,2,-14
3397,-3,6,-2,-4,-8,-2,0,-13
3398,-5,6,0,-4,-8,-2,-1,-13
3399,-7,6,1,-5,-7,-3,-1,-13
3400,-7,6,0,-5,-7,-5,-1,-13
3401,-6,5,-1,-5,-7,-5,0,-12
3402,-4,5,-2,-4,-7,-4,2,-12
3403,-3,4,-2,-3,-7,-2,4,-12
3404,-1,4,-3,-3,-6,0,5,-13
3405,0,5,-4,-2,-6,0,5,-13
3406,1,6,-5,0,-5,-1,6,-13
3407,1,7,-7,1,-5,-1,6,-13
3408,2,7,-6,2,-4,-1,6,-12
3409,2,7,-5,2,-3,-1,6,-11
3410,2,7,-3,3,-3,0,6,-9
3411,2,7,-2,2,-3,2,6,-8
3412,1,7,-2,2,-3,4,6,-8
3413,1,7,-3,1,-4,6,5,-9
3414,0,8,-4,1,-4,8,5,-10
3415,0,8,-5,0,-5,10,5,-11
3416,0,8,-5,0,-6,11,6,-11
3417,0,8,-5,0,-6,10,6,-11
3418,0,9,-5,0,-6,8,6,-10
3419,0,9,-5,0,-6,5,6,-8
3420,0,10,-6,0,-5,2,6,-6
3421,1,10,-6,1,-4,2,6,-4
3422,1,11,-6,1,-3,3,6,-3
3423,2,12,-6,3,-2,5,6,-1
3424,2,13,-7,4,-1,6,7,0
3425,3,14,-7,5,0,6,7,1
3426,3,15,-7,6,1,3,8,3
3427,3,15,-7,7,3,0,8,4
3428,3,15,-8,8,5,-1,9,5
3429,3,15,-7,9,7,0,9,7
3430,2,15,-7,9,9,1,8,8
3431,2,14,-6,9,10,1,8,9
3432,1,13,-5,7,10,0,6,9
3433,1,11,-4,6,9,-1,5,9
3434,0,8,-4,4,8,-1,4,8
3435,1,6,-3,4,6,0,4,7
3436,1,5,-2,4,4,1,4,6
3437,3,4,-2,4,3,1,4,6
3438,4,3,-3,4,2,1,4,5
3439,5,2,-4,3,2,2,4,5
3440,5,1,-5,2,3,4,4,6
3441,5,1,-7,1,4,5,3,6
3442,5,0,-11,1,5,4,3,6
3443,5,0,-15,1,5,2,3,6
3444,6,-1,-18,1,4,-2,2,6
3445,7,-2,-20,1,2,-6,2,6
3446,7,-2,-21,1,0,-9,2,6
3447,8,-2,-21,1,-1,-10,2,5
3448,8,-2,-20,0,-2,-9,2,5
3449,9,-2,-19,-1,-1,-8,2,6
3450,9,-2,-18,-2,2,-7,2,6
3451,9,-2,-17,-2,4,-6,2,7
3452,10,-3,-15,-3,6,-4,1,8
3453,10,-4,-12,-4,7,-1,1,8
3454,11,-6,-9,-4,7,2,1,8
3455,11,-8,-6,-4,6,5,0,8
3456,10,-9,-3,-3,5,6,-1,7
3457,9,-9,1,-2,3,7,-1,7
3458,8,-8,3,-1,2,6,0,6
3459,6,-7,3,-1,2,4,0,5
3460,5,-6,2,-1,2,2,1,3
3461,5,-5,-1,-2,1,1,1,2
3462,5,-5,-5,-2,1,-2,2,1
3463,5,-5,-9,-2,1,-4,3,-1
3464,5,-5,-10,-1,0,-6,3,-1
3465,6,-5,-11,-1,1,-6,4,0
3466,6,-6,-10,0,1,-4,4,1
3467,7,-7,-9,0,1,-2,4,2
3468,8,-7,-9,0,1,0,4,3
3469,8,-8,-9,-1,1,0,3,3
3470,8,-8,-9,-1,2,-2,2,3
3471,8,-7,-10,-2,2,-5,1,2
3472,7,-6,-10,-2,3,-7,0,2
3473,6,-5,-9,-3,5,-8,-1,1
3474,6,-4,-9,-3,5,-8,-1,1
3475,5,-4,-10,-3,5,-7,-1,1
3476,5,-3,-11,-3,5,-5,0,1
3477,5,-4,-11,-2,3,-3,0,1
3478,6,-4,-11,-2,2,-1,0,1
3479,5,-5,-11,-3,1,-1,0,2
3480,4,-5,-10,-4,1,-2,-1,2
3481,3,-4,-9,-5,2,-3,-1,3
3482,2,-3,-9,-5,3,-3,-1,4
3483,2,-1,-8,-6,4,-2,-2,5
3484,3,0,-8,-6,4,0,-2,5
3485,3,1,-7,-6,4,3,-2,5
3486,4,1,-5,-6,4,4,-2,4
3487,3,1,-4,-7,3,4,-2,3
3488,2,1,-4,-7,4,2,-2,2
3489,1,2,-5,-8,4,1,-2,2
3490,-1,2,-6,-7,4,3,-2,3
3491,-1,4,-7,-6,3,6,-2,5
3492,-2,4,-5,-6,2,8,-2,6
3493,-1,4,-4,-5,0,9,-3,7
3494,-1,4,-4,-6,-1,8,-4,7
3495,-1,3,-4,-6,-2,5,-4,6
3496,-1,2,-6,-7,-2,1,-5,5
3497,-2,1,-7,-8,-1,-2,-6,4
3498,-2,1,-7,-8,-1,-2,-6,5
3499,-3,0,-6,-7,1,1,-5,6
3500,-2,0,-5,-5,2,3,-5,8
3501,-1,1,-5,-3,3,5,-4,8
3502,1,1,-7,-1,4,5,-2,8
3503,3,2,-9,1,4,5,-1,8
3504,6,3,-11,2,5,3,1,8
3505,9,4,-13,3,5,1,2,9
3506,10,4,-15,3,5,-2,4,9
3507,11,4,-18,2,5,-5,4,8
3508,11,3,-19,1,5,-7,4,6
3509,10,1,-19,-1,4,-8,4,4
3510,9,0,-17,-1,3,-6,4,3
3511,7,0,-15,-2,2,-2,3,4
3512,6,1,-12,-1,2,1,3,5
3513,5,2,-8,-1,2,2,3,7
3514,5,4,-5,0,2,3,4,8
3515,5,5,-4,1,3,4,5,9
3516,6,6,-4,1,4,7,5,11
3517,7,8,-5,1,5,8,6,12
3518,7,9,-7,2,5,9,6,14
3519,7,9,-10,2,5,7,6,14
3520,7,7,-11,2,4,2,5,14
3521,6,5,-11,1,3,-4,4,11
3522,6,1,-10,0,1,-6,3,7
3523,5,-4,-9,-1,-1,-7,2,4
3524,4,-7,-8,-2,-3,-6,2,0
3525,5,-10,-7,-3,-5,-6,1,-3
3526,5,-11,-5,-4,-7,-4,1,-4
3527,5,-12,-3,-5,-9,-2,0,-6
3528,5,-12,-2,-4,-10,0,-1,-7
3529,4,-12,-3,-4,-10,-1,-1,-8
3530,3,-11,-4,-3,-10,-4,0,-9
3531,2,-11,-6,-1,-9,-7,0,-9
3532,2,-10,-8,0,-8,-9,0,-10
3533,1,-10,-9,1,-8,-10,1,-10
3534,1,-10,-9,3,-7,-8,2,-10
3535,1,-10,-9,4,-7,-6,3,-9
3536,1,-10,-10,4,-6,-5,3,-8
3537,0,-9,-10,4,-5,-6,4,-7
3538,-1,-6,-10,4,-4,-9,4,-5
3539,-1,-3,-9,4,-2,-9,4,-3
3540,-1,-1,-9,4,-1,-8,3,-1
3541,-1,1,-10,4,-1,-7,3,0
3542,-1,1,-10,5,-2,-7,3,0
3543,0,-1,-11,4,-4,-6,2,-1
3544,1,-2,-12,4,-6,-6,1,-3
3545,0,-3,-13,3,-8,-5,-1,-4
3546,-2,-4,-13,2,-9,-6,-1,-6
3547,-4,-4,-11,2,-9,-7,-1,-6
3548,-6,-3,-8,2,-9,-7,-2,-6
3549,-8,-2,-5,2,-7,-5,-2,-4
3550,-8,-1,-3,1,-6,-1,-2,-2
3551,-9,1,-2,1,-5,4,-2,0
3552,-8,2,-2,-1,-5,7,-3,2
3553,-7,3,-3,-1,-6,8,-3,2
3554,-7,4,-4,-2,-7,6,-2,1
3555,-6,4,-5,-2,-8,3,-2,0
3556,-5,4,-6,0,-8,-1,-1,-1
3557,-5,4,-8,2,-8,-3,0,-2
3558,-4,5,-9,3,-6,-5,1,-2
3559,-4,5,-11,5,-5,-7,2,-2
3560,-4,4,-12,6,-2,-10,3,-2
3561,-3,3,-11,7,0,-15,3,-2
3562,-3,3,-9,8,2,-17,3,-2
3563,-3,2,-7,8,3,-15,4,-1
3564,-3,2,-4,8,3,-10,4,-1
3565,-3,2,-1,8,3,-5,3,-2
3566,-4,1,2,7,2,-1,3,-4
3567,-5,1,4,6,1,2,2,-6
3568,-7,1,6,6,1,2,2,-8
3569,-7,0,7,6,0,0,2,-9
3570,-7,-1,8,7,0,0,2,-8
3571,-6,-2,9,7,0,2,2,-7
3572,-4,-2,9,8,1,4,3,-5
3573,-3,-2,9,8,1,7,2,-3
3574,-1,-1,9,8,1,9,2,-1
3575,0,1,8,8,1,10,2,-1
3576,0,2,7,8,0,11,3,-1
3577,-1,2,7,7,-2,13,3,-2
3578,-1,2,8,6,-4,14,2,-2
3579,-1,1,9,4,-6,15,1,-2
3580,-1,0,10,3,-7,16,0,-2
3581,-1,-1,10,2,-9,16,-1,-1
3582,-1,-1,10,2,-10,15,-1,-1
3583,0,-1,9,3,-10,14,0,-1
3584,1,-1,8,5,-9,14,1,-2
3585,1,-1,8,5,-8,17,2,-2
3586,1,-1,8,5,-6,20,2,-3
3587,1,-2,10,4,-5,22,1,-4
3588,-1,-3,12,2,-4,24,0,-4
3589,-2,-3,14,1,-3,23,-1,-4
3590,-2,-4,16,1,-3,21,-2,-4
3591,-2,-4,16,1,-3,19,-2,-4
3592,-1,-4,16,2,-4,17,-2,-3
3593,0,-4,14,2,-3,17,-2,-3
3594,2,-4,14,2,-3,18,-1,-1
3595,3,-3,14,3,-3,20,0,1
3596,4,-3,14,3,-2,23,1,3
3597,4,-1,14,3,-1,26,1,6
3598,4,0,13,3,0,28,2,9
3599,4,2,13,3,2,29,2,11
3600,4,3,12,3,3,28,2,13
3601,5,5,10,2,4,27,3,13
3602,5,7,10,2,5,26,3,13
3603,5,8,9,1,5,26,4,12
3604,5,8,9,1,5,25,4,12
3605,5,8,8,0,4,24,4,11
3606,5,7,8,0,4,22,5,11
3607,6,6,8,1,5,20,6,10
3608,6,5,8,1,5,18,7,10
3609,7,5,8,2,4,15,7,10
3610,8,4,6,2,3,13,8,10
3611,8,4,3,2,1,12,8,10
3612,7,3,-2,1,-1,12,7,9
3613,5,2,-7,0,-2,12,6,9
3614,4,2,-8,0,-3,12,5,8
3615,3,1,-8,0,-4,11,4,8
3616,2,1,-6,1,-5,9,4,6
3617,1,0,-3,1,-6,6,3,5
3618,1,-2,-2,1,-6,3,3,4
3619,0,-3,-1,0,-7,4,2,3
3620,-1,-4,0,-1,-6,7,2,2
3621,-3,-5,1,-1,-5,10,2,1
3622,-3,-5,3,-1,-3,11,2,-1
3623,-3,-3,5,-1,-1,11,2,-1
3624,-3,-1,6,0,2,8,2,1
3625,-2,2,5,1,5,5,3,4
3626,-1,5,4,1,8,2,2,7
3627,1,7,3,1,10,1,2,9
3628,2,9,1,2,12,2,3,9
3629,4,10,0,2,12,2,3,9
3630,4,9,-1,3,12,3,4,8
3631,5,8,-1,3,11,4,4,7
3632,4,7,-2,3,11,4,5,6
3633,4,6,-2,3,10,5,4,5
3634,3,4,-3,3,9,5,4,4
3635,3,3,-4,2,8,6,3,3
3636,2,1,-5,1,6,6,2,2
3637,2,-1,-6,-1,4,6,1,0
3638,1,-2,-5,-2,3,6,0,-1
3639,-1,-3,-4,-3,2,5,-1,-2
3640,-1,-4,-3,-4,2,4,-2,-3
3641,-2,-5,-2,-4,2,2,-2,-4
3642,-2,-6,-2,-4,3,0,-2,-4
3643,-3,-7,-3,-4,3,-2,-3,-4
3644,-4,-7,-3,-4,4,-4,-3,-4
3645,-5,-7,-2,-5,5,-4,-3,-3
3646,-5,-5,-1,-5,5,-2,-3,-2
3647,-5,-4,0,-5,5,0,-3,0
3648,-5,-3,1,-5,5,1,-4,1
3649,-4,-3,2,-6,5,1,-4,3
3650,-4,-3,3,-6,5,0,-4,4
3651,-3,-3,4,-5,5,0,-4,5
3652,-2,-2,5,-4,5,1,-4,6
3653,-1,-2,5,-4,4,2,-4,7
3654,1,-1,4,-2,2,3,-3,7
3655,2,0,3,-2,1,2,-2,7
3656,2,0,2,-1,-1,0,-1,6
3657,3,0,2,0,-1,-3,0,6
3658,4,-1,2,0,0,-4,1,6
3659,5,-1,3,0,2,-3,1,7
3660,5,-1,3,0,3,0,1,9
3661,5,0,3,-1,4,1,1,10
3662,5,1,2,-2,5,0,1,10
3663,4,3,2,-3,5,-3,1,10
3664,4,3,1,-3,6,-6,1,9
3665,3,4,1,-2,6,-9,2,8
3666,2,3,0,-1,7,-10,2,8
3667,2,3,1,1,7,-11,3,9
3668,1,3,1,2,7,-12,3,10
3669,0,2,3,3,8,-14,3,10
3670,-1,3,4,2,8,-16,3,10
3671,-2,4,5,1,7,-16,2,9
3672,-2,5,6,-1,7,-14,2,8
3673,-3,6,6,-2,7,-13,2,6
3674,-3,7,7,-2,8,-14,2,6
3675,-3,7,7,-1,8,-17,2,6
3676,-2,7,8,1,8,-19,3,6
3677,-1,7,8,2,9,-18,3,6
3678,1,7,9,3,9,-15,4,7
3679,1,6,10,3,9,-11,4,8
3680,2,5,11,3,8,-8,4,9
3681,2,5,10,3,8,-7,4,9
3682,2,4,9,3,7,-9,3,10
3683,1,4,7,2,7,-12,2,10
3684,0,3,5,2,7,-15,1,11
3685,-1,4,4,2,7,-16,1,12
3686,-1,4,4,2,7,-17,0,12
3687,-1,6,3,2,8,-18,1,13
3688,-1,8,2,2,8,-19,1,14
3689,0,10,-1,3,9,-19,2,14
3690,0,11,-4,3,10,-17,2,14
3691,0,11,-6,2,11,-17,2,14
3692,-1,10,-6,2,12,-17,2,13
3693,-2,9,-5,0,12,-18,2,11
3694,-4,7,-4,-1,12,-17,2,9
3695,-5,7,-4,-2,11,-16,1,8
3696,-6,7,-4,-2,11,-14,1,7
3697,-6,8,-4,-2,10,-13,1,8
3698,-7,9,-4,-3,10,-14,0,9
3699,-7,10,-3,-4,10,-15,0,10
3700,-7,10,-3,-4,9,-17,0,10
3701,-7,10,-4,-3,9,-18,0,9
3702,-6,11,-5,-2,10,-19,1,9
3703,-5,11,-6,1,9,-19,1,8
3704,-5,11,-7,2,9,-20,1,8
3705,-4,12,-7,4,8,-21,1,8
3706,-5,12,-6,5,8,-20,0,8
3707,-6,13,-5,5,7,-18,-1,8
3708,-8,14,-4,5,7,-16,-2,8
3709,-9,15,-3,5,6,-15,-2,7
3710,-9,15,-4,6,5,-16,-2,5
3711,-8,14,-4,6,4,-17,-1,4
3712,-8,13,-4,7,2,-16,-1,2
3713,-7,11,-6,8,0,-16,-1,0
3714,-7,10,-8,8,-3,-14,-1,-2
3715,-8,8,-11,8,-5,-13,-1,-4
3716,-9,7,-13,7,-7,-12,-1,-6
3717,-10,5,-15,6,-9,-14,-2,-7
3718,-11,4,-16,5,-9,-14,-2,-7
3719,-12,4,-14,3,-9,-12,-3,-7
3720,-13,5,-12,2,-8,-10,-4,-6
3721,-14,6,-11,1,-7,-9,-5,-5
3722,-14,7,-10,1,-7,-10,-6,-5
3723,-14,8,-9,1,-7,-11,-6,-5
3724,-14,9,-9,2,-7,-11,-6,-5
3725,-14,9,-8,3,-6,-10,-5,-4
3726,-13,10,-8,4,-5,-9,-5,-3
3727,-12,11,-7,4,-3,-7,-4,-1
3728,-12,12,-6,4,-1,-4,-4,2
3729,-11,12,-5,4,0,-3,-3,3
3730,-10,11,-4,4,1,-2,-2,3
3731,-10,10,-4,4,1,-1,-2,3
3732,-9,10,-3,4,0,0,-2,2
3733,-8,10,-2,4,-1,1,-2,1
3734,-7,10,-2,4,-1,1,-2,1
3735,-6,11,-3,4,-2,1,-1,0
3736,-5,12,-5,5,-2,1,0,-1
3737,-4,12,-7,5,-2,1,1,-1
3738,-3,13,-8,5,-2,0,1,-1
3739,-3,13,-10,5,-2,-2,1,-1
3740,-4,13,-11,5,-2,-4,1,-1
3741,-5,13,-11,4,-1,-4,1,-1
3742,-6,13,-10,4,-1,-2,0,-1
3743,-8,13,-9,4,-1,1,0,-1
3744,-9,12,-8,3,-2,4,-1,-2
3745,-10,11,-7,3,-2,5,-1,-2
3746,-10,10,-6,2,-3,4,-1,-3
3747,-10,8,-6,2,-3,2,-1,-4
3748,-10,7,-7,2,-4,-1,-2,-5
3749,-9,7,-7,2,-6,-2,-2,-5
3750,-9,6,-7,2,-7,-2,-2,-5
3751,-8,7,-6,3,-8,-2,-3,-5
3752,-7,7,-7,3,-10,-3,-2,-4
3753,-5,7,-9,3,-10,-5,-2,-4
3754,-3,7,-11,3,-10,-6,-1,-3
3755,-1,7,-13,3,-10,-6,-1,-3
3756,1,7,-14,3,-9,-6,0,-2
3757,3,7,-12,4,-8,-6,1,-2
3758,5,6,-11,5,-8,-4,1,0
3759,6,5,-9,6,-8,-1,1,2
3760,6,5,-9,6,-8,3,0,4
3761,5,4,-9,5,-9,5,-1,5
3762,5,4,-9,4,-11,6,-2,5
3763,4,4,-9,2,-11,4,-3,5
3764,4,4,-8,1,-11,1,-3,4
3765,3,3,-7,1,-10,-1,-4,3
3766,3,3,-6,2,-9,-1,-3,2
3767,4,2,-5,3,-8,0,-3,2
3768,4,1,-4,4,-8,2,-3,1
3769,3,0,-3,4,-9,4,-3,-1
3770,3,-1,-1,4,-10,7,-3,-3
3771,2,-2,1,3,-11,9,-3,-5
3772,0,-3,3,2,-13,12,-4,-7
3773,-2,-4,5,2,-14,15,-4,-8
3774,-3,-5,6,1,-15,17,-4,-10
3775,-3,-5,7,0,-15,19,-4,-11
3776,-3,-7,8,-1,-15,19,-3,-12
3777,-2,-7,10,-2,-14,20,-3,-13
3778,-1,-8,11,-2,-12,19,-3,-13
3779,0,-7,9,-2,-10,17,-3,-12
3780,1,-7,6,-2,-8,14,-2,-10
3781,0,-7,3,-2,-6,9,-2,-9
3782,-1,-7,1,-2,-4,5,-3,-7
3783,-1,-7,1,-1,-4,2,-3,-5
3784,-2,-5,3,0,-4,-2,-3,-3
3785,-1,-4,5,1,-4,-5,-2,-2
3786,0,-3,7,1,-3,-8,-2,0
3787,2,-2,9,1,-2,-9,-2,2
3788,3,-1,10,2,0,-6,-3,4
3789,5,-1,12,2,2,-1,-3,6
3790,7,-2,15,3,5,6,-3,7
3791,8,-2,18,5,7,11,-2,9
3792,10,-1,21,7,8,15,0,10
3793,12,0,24,8,9,14,2,11
3794,14,1,25,9,10,11,3,11
3795,15,2,26,9,12,8,3,11
3796,16,3,26,9,13,6,4,11
3797,17,4,25,8,13,5,4,10
3798,17,4,24,6,13,4,4,9
3799,16,4,24,5,11,3,3,7
3800,15,3,23,4,9,1,3,5
3801,13,2,23,3,6,1,2,3
3802,11,0,22,3,3,1,1,1
3803,9,-1,21,2,0,3,0,0
3804,7,-1,20,2,-3,4,0,-1
3805,6,-2,19,1,-4,4,0,-2
3806,6,-2,18,1,-5,4,0,-2
3807,6,-3,17,2,-5,2,1,-1
3808,7,-3,14,2,-4,-1,2,-1
3809,8,-4,12,2,-2,-3,2,0
3810,8,-6,8,2,-1,-6,2,1
3811,8,-8,6,1,-1,-9,1,1
3812,8,-9,4,-1,-1,-12,0,1
3813,7,-11,4,-3,0,-13,-2,1
3814,5,-11,4,-5,0,-13,-3,1
3815,3,-11,5,-7,0,-13,-4,1
3816,1,-12,5,-8,0,-14,-4,0
3817,-1,-12,7,-8,0,-14,-5,-1
3818,-1,-12,8,-7,0,-14,-4,-1
3819,-1,-12,8,-7,0,-14,-4,0
3820,0,-11,8,-7,1,-13,-3,1
3821,1,-10,7,-6,1,-13,-3,2
3822,1,-9,7,-6,2,-14,-3,3
3823,2,-9,8,-6,2,-16,-3,3
3824,2,-9,9,-7,2,-18,-4,2
3825,3,-10,9,-7,2,-20,-4,2
3826,4,-11,7,-7,3,-19,-4,3
3827,5,-10,6,-7,4,-18,-3,4
3828,5,-9,4,-7,5,-16,-2,5
3829,5,-9,3,-6,4,-15,-1,5
3830,4,-9,3,-5,3,-13,-1,5
3831,3,-10,4,-4,1,-10,-1,5
3832,3,-11,4,-4,0,-7,-1,4
3833,2,-13,5,-3,-1,-7,-1,3
3834,1,-16,6,-4,-2,-7,-2,2
3835,0,-19,7,-4,-2,-7,-3,0
3836,-1,-22,9,-5,-3,-6,-4,-2
3837,-1,-24,9,-5,-4,-6,-4,-4
3838,-1,-25,8,-6,-5,-7,-5,-6
3839,-2,-26,7,-6,-6,-6,-5,-8
3840,-2,-25,5,-7,-7,-6,-5,-9
3841,-3,-24,3,-7,-9,-8,-6,-10
3842,-4,-23,1,-8,-10,-10,-6,-11
3843,-5,-22,1,-8,-11,-10,-6,-12
3844,-5,-22,1,-7,-11,-9,-5,-13
3845,-5,-22,2,-7,-11,-8,-5,-14
3846,-4,-22,1,-6,-11,-6,-5,-15
3847,-3,-22,-1,-6,-11,-6,-5,-15
3848,-2,-21,-3,-5,-10,-6,-4,-14
3849,-1,-21,-5,-5,-9,-7,-4,-14
3850,1,-21,-7,-5,-7,-10,-4,-13
3851,1,-21,-7,-5,-5,-11,-4,-12
3852,2,-20,-7,-6,-4,-13,-4,-13
3853,2,-20,-7,-6,-3,-13,-5,-13
3854,2,-20,-6,-6,-4,-12,-5,-13
3855,1,-19,-6,-6,-5,-11,-5,-13
3856,1,-19,-5,-5,-6,-11,-4,-13
3857,1,-18,-5,-3,-7,-10,-3,-12
3858,1,-17,-5,-2,-7,-10,-2,-12
3859,0,-15,-6,-2,-5,-9,-2,-10
3860,-1,-12,-6,-1,-3,-10,-1,-8
3861,-2,-10,-7,-1,1,-11,-1,-6
3862,-2,-8,-7,0,3,-11,-1,-3
3863,-2,-7,-7,0,3,-11,-1,-1
3864,-1,-6,-6,1,2,-11,-2,1
3865,0,-6,-6,0,0,-9,-2,1
3866,1,-5,-5,0,-1,-7,-2,1
3867,1,-5,-6,1,-2,-5,-1,2
3868,2,-4,-7,1,-1,-4,-1,3
3869,3,-3,-7,2,-1,-5,0,4
3870,4,-1,-7,2,0,-5,1,6
3871,5,0,-7,2,1,-6,1,7
3872,6,1,-6,2,1,-6,0,6
3873,6,0,-5,1,1,-6,0,5
3874,5,-1,-4,0,0,-5,-1,4
3875,5,-2,-4,-2,-1,-2,-2,2
3876,5,-3,-3,-3,-2,1,-2,-1
3877,5,-4,-3,-3,-3,5,-2,-2
3878,4,-4,-2,-3,-3,7,-2,-3
3879,4,-4,-2,-3,-3,8,-1,-4
3880,4,-4,-1,-2,-3,6,0,-5
3881,3,-3,0,-1,-1,4,0,-5
3882,3,-3,1,0,1,3,1,-4
3883,3,-2,2,1,4,4,1,-2
3884,3,-1,3,2,6,7,1,1
3885,3,0,3,2,8,9,1,3
3886,3,2,3,3,9,10,1,6
3887,3,4,1,3,10,10,2,8
3888,4,6,-1,3,11,9,2,10
3889,5,7,-2,4,12,8,3,11
3890,5,8,-4,4,12,6,3,12
3891,5,9,-5,4,11,5,3,12
3892,5,10,-5,4,10,6,3,11
3893,4,11,-5,4,8,5,3,10
3894,4,11,-5,3,6,6,3,8
3895,4,12,-4,3,4,7,3,7
3896,5,12,-3,2,3,9,3,6
3897,4,11,-2,2,3,8,3,5
3898,4,9,-2,1,5,5,2,4
3899,3,7,-2,-1,6,1,2,3
3900,2,6,-2,-1,7,-3,2,2
3901,1,4,-3,-2,8,-7,2,1
3902,1,4,-5,-2,9,-10,2,0
3903,0,4,-7,-2,8,-12,2,0
3904,0,4,-9,-1,8,-13,2,0
3905,1,4,-11,-1,7,-14,2,0
3906,1,4,-11,-1,6,-16,2,1
3907,1,4,-11,-1,5,-18,2,1
3908,2,4,-10,0,5,-20,2,1
3909,2,4,-10,1,6,-20,3,2
3910,3,3,-10,2,7,-22,3,2
3911,5,1,-11,2,9,-23,4,2
3912,6,-1,-11,2,9,-25,4,1
3913,7,-3,-10,2,9,-27,4,0
3914,8,-6,-8,2,8,-28,4,-2
3915,9,-7,-7,1,7,-28,4,-3
3916,8,-7,-6,-1,6,-24,3,-3
3917,7,-5,-4,-2,5,-20,2,-3
3918,6,-4,-2,-3,4,-15,0,-2
3919,6,-2,1,-4,4,-11,-1,-2
3920,5,-1,3,-5,3,-9,-1,-2
3921,4,-1,4,-5,2,-7,-1,-3
3922,4,-2,5,-5,3,-5,-1,-3
3923,4,-2,4,-5,3,-2,-1,-3
3924,4,-1,2,-5,5,0,-1,-2
3925,5,-1,2,-5,6,-1,-1,-1
3926,5,-1,3,-5,8,-5,-1,-1
3927,5,-1,4,-4,10,-8,-1,0
3928,5,-2,5,-3,12,-10,0,-1
3929,5,-4,5,-3,14,-12,0,-1
3930,5,-6,6,-2,16,-11,0,-2
3931,4,-7,6,-2,18,-9,-1,-3
3932,4,-9,6,-2,18,-6,-1,-4
3933,3,-11,6,-3,19,-6,-2,-6
3934,2,-12,4,-4,18,-6,-2,-8
3935,0,-12,2,-5,15,-7,-3,-10
3936,-1,-11,-1,-6,11,-7,-3,-11
3937,-2,-10,-3,-6,6,-7,-4,-13
3938,-2,-10,-6,-7,2,-8,-4,-14
3939,-3,-10,-7,-8,-2,-9,-5,-15
3940,-4,-9,-8,-9,-3,-9,-6,-16
3941,-5,-9,-9,-10,-3,-10,-7,-17
3942,-5,-8,-9,-10,-2,-11,-7,-17
3943,-6,-6,-10,-11,0,-12,-7,-16
3944,-6,-5,-12,-10,2,-13,-7,-14
3945,-5,-4,-14,-9,4,-12,-6,-12
3946,-4,-3,-16,-8,5,-12,-5,-10
3947,-5,-2,-19,-7,5,-12,-5,-9
3948,-6,-2,-23,-7,4,-13,-5,-9
3949,-7,-3,-28,-6,2,-14,-5,-10
3950,-8,-4,-32,-5,0,-17,-4,-10
3951,-8,-5,-34,-4,-3,-20,-3,-10
3952,-7,-5,-33,-3,-5,-23,-2,-10
3953,-6,-5,-30,-2,-6,-24,-1,-10
3954,-5,-4,-25,-2,-7,-24,-1,-10
3955,-4,-3,-21,-2,-8,-23,-1,-9
3956,-4,-2,-19,-2,-9,-21,-1,-9
3957,-5,-1,-18,-3,-10,-18,-1,-9
3958,-5,-1,-17,-5,-11,-13,-2,-10
3959,-6,-1,-16,-6,-12,-9,-2,-10
3960,-6,-1,-15,-6,-11,-6,-2,-10
3961,-6,0,-15,-6,-10,-5,-1,-9
3962,-4,1,-17,-6,-7,-5,0,-8
3963,-3,2,-19,-6,-4,-6,1,-7
3964,-2,3,-21,-6,-2,-9,1,-6
3965,-1,4,-23,-6,1,-12,1,-6
3966,-1,4,-23,-6,2,-13,1,-5
3967,-1,4,-22,-6,2,-14,0,-4
3968,-2,4,-20,-6,1,-15,-1,-4
3969,-2,3,-17,-6,0,-15,-1,-4
3970,-2,1,-13,-7,-1,-12,-2,-4
3971,-2,0,-11,-7,-1,-9,-3,-6
3972,-2,-2,-11,-7,-1,-8,-4,-7
3973,-2,-3,-12,-8,-1,-9,-4,-9
3974,-2,-4,-14,-8,0,-11,-4,-9
3975,-1,-5,-17,-8,0,-13,-4,-8
3976,0,-5,-18,-8,1,-14,-3,-7
3977,2,-5,-19,-8,1,-12,-3,-5
3978,3,-5,-19,-7,1,-10,-2,-3
3979,4,-5,-19,-6,1,-7,-2,0
3980,4,-4,-18,-5,0,-6,-2,2
3981,4,-3,-17,-4,-1,-7,-1,3
3982,5,-2,-17,-3,-1,-9,-1,5
3983,5,-1,-18,-2,-1,-10,-2,5
3984,5,-1,-19,-2,-1,-11,-2,6
3985,4,-1,-20,-2,-1,-12,-3,6
3986,2,-2,-20,-2,-1,-14,-4,5
3987,1,-2,-20,-2,0,-14,-4,5
3988,0,-2,-21,-2,1,-14,-4,5
3989,0,-1,-21,-2,1,-13,-3,6
3990,1,0,-21,-2,1,-12,-3,6
3991,2,1,-20,-3,1,-9,-2,6
3992,2,2,-19,-3,2,-5,-2,7
3993,2,3,-17,-3,2,0,-2,7
3994,1,3,-14,-3,3,4,-2,7
3995,1,4,-12,-3,4,8,-2,8
3996,1,4,-11,-3,5,9,-2,9
3997,1,4,-10,-4,5,8,-2,10
3998,1,3,-11,-5,5,5,-3,9
3999,0,1,-12,-6,4,2,-4,7
4000,0,-1,-14,-7,3,1,-5,5
4001,0,-3,-14,-7,1,0,-5,3
4002,0,-4,-14,-7,-1,0,-5,3
4003,0,-5,-14,-5,-2,-2,-4,3
4004,1,-5,-13,-4,-3,-4,-3,3
4005,2,-5,-14,-2,-2,-7,-3,3
4006,3,-5,-15,-1,-1,-9,-2,2
4007,4,-4,-16,1,0,-11,-1,2
4008,5,-4,-17,1,1,-11,0,1
4009,5,-3,-17,1,2,-11,0,1
4010,5,-3,-17,0,3,-10,-1,2
4011,4,-3,-17,-1,3,-10,-2,2
4012,2,-3,-17,-3,3,-10,-3,3
4013,1,-3,-17,-4,3,-11,-4,3
4014,-1,-3,-16,-5,3,-11,-6,3
4015,-2,-3,-15,-6,2,-11,-7,2
4016,-3,-3,-14,-7,2,-11,-7,-1
4017,-4,-3,-14,-7,1,-11,-7,-4
4018,-5,-3,-13,-7,-1,-9,-7,-6
4019,-4,-3,-12,-7,-3,-7,-6,-8
4020,-4,-3,-11,-6,-5,-2,-4,-10
4021,-2,-3,-9,-6,-6,2,-3,-10
4022,-1,-4,-7,-6,-7,4,-3,-11
4023,1,-4,-7,-7,-8,5,-3,-11
4024,1,-5,-8,-8,-8,4,-4,-10
4025,2,-4,-9,-8,-7,3,-4,-9
4026,2,-3,-11,-8,-6,1,-4,-8
4027,2,-2,-12,-8,-5,0,-4,-6
4028,2,1,-12,-8,-4,1,-4,-3
4029,3,3,-10,-8,-3,3,-3,-1
4030,3,5,-8,-8,-2,3,-3,2
4031,3,6,-6,-8,-2,3,-3,3
4032,3,7,-4,-8,-2,2,-3,4
4033,2,7,-3,-8,-2,2,-2,5
4034,2,7,-2,-7,-1,2,-2,5
4035,2,8,-2,-7,0,4,-2,5
4036,1,8,-1,-7,1,7,-2,4
4037,0,8,-1,-6,2,9,-3,4
4038,-1,9,-2,-6,3,11,-3,3
4039,-2,10,-3,-5,3,11,-3,3
4040,-2,12,-5,-4,3,10,-2,3
4041,-2,13,-7,-4,3,10,-1,4
4042,-1,14,-8,-3,4,10,0,4
4043,-1,14,-9,-3,4,11,0,3
4044,-2,13,-8,-3,4,11,1,3
4045,-2,12,-7,-2,3,10,1,2
4046,-2,11,-7,-2,3,7,1,2
4047,-1,11,-7,-2,4,3,2,3
4048,0,11,-8,-1,6,1,2,4
4049,0,12,-8,-1,7,0,3,5
4050,1,13,-8,0,9,-1,3,6
4051,0,13,-8,0,10,-2,3,7
4052,-1,14,-8,0,10,-1,3,7
4053,-2,13,-7,0,9,0,2,7
4054,-3,12,-6,-1,7,0,2,5
4055,-3,10,-5,-1,5,-1,2,3
4056,-3,8,-5,-1,4,-2,2,1
4057,-2,6,-6,-1,2,-4,2,-1
4058,0,4,-8,-1,1,-5,2,-3
4059,2,3,-9,-2,1,-6,2,-3
4060,3,2,-10,-2,1,-6,1,-4
4061,3,1,-10,-3,2,-6,1,-4
4062,2,1,-9,-3,1,-7,-1,-5
4063,2,0,-8,-3,2,-10,-1,-5
4064,2,1,-7,-3,2,-12,-1,-4
4065,2,2,-6,-2,3,-13,-1,-3
4066,2,3,-5,-2,3,-13,0,-2
4067,2,4,-5,-1,3,-14,1,-2
4068,2,3,-5,0,2,-15,1,-3
4069,2,3,-6,0,2,-18,2,-5
4070,3,1,-8,1,0,-21,2,-6
4071,3,0,-10,1,-1,-25,2,-8
4072,2,-1,-12,0,-3,-26,1,-9
4073,2,-2,-13,-1,-5,-25,1,-10
4074,1,-2,-13,-1,-7,-23,1,-11
4075,1,-2,-14,-1,-9,-21,1,-11
4076,1,-1,-15,0,-9,-19,1,-10
4077,2,-2,-15,0,-9,-20,1,-9
4078,3,-3,-14,1,-8,-22,1,-7
4079,3,-4,-12,1,-8,-23,0,-5
4080,2,-6,-10,0,-9,-20,-1,-4
4081,1,-6,-10,-1,-11,-16,-1,-3
4082,0,-7,-10,-2,-12,-12,-1,-3
4083,-2,-7,-8,-2,-13,-10,-1,-3
4084,-3,-7,-7,-3,-14,-8,-1,-4
4085,-4,-7,-5,-4,-16,-7,-1,-6
4086,-5,-7,-3,-5,-17,-6,-1,-8
4087,-6,-8,-2,-4,-18,-4,-1,-11
4088,-7,-7,-1,-3,-19,-2,-1,-12
4089,-7,-5,0,-2,-18,-1,-1,-11
4090,-7,-3,-1,-1,-18,-1,-1,-10
4091,-6,-1,-1,-1,-16,-2,-1,-8
4092,-4,3,-1,1,-14,-2,0,-6
4093,-3,6,-1,2,-13,-1,1,-5
4094,-2,9,-1,3,-11,1,1,-3
4095,-2,12,0,4,-9,3,2,-1
4096,-2,13,1,4,-8,5,3,1
4097,-1,14,3,4,-7,6,3,2
4098,-1,14,3,3,-7,6,3,3
4099,0,14,2,3,-7,6,3,4
4100,0,13,2,3,-7,6,3,4
4101,0,13,2,3,-6,6,3,5
4102,-1,12,3,3,-6,6,2,4
4103,-1,11,4,2,-6,5,2,3
4104,-1,10,5,2,-6,6,2,2
4105,0,9,6,1,-5,7,3,2
4106,1,9,7,2,-5,8,4,2
4107,2,9,8,2,-5,9,5,2
4108,3,9,8,3,-5,10,5,3
4109,2,8,8,3,-6,11,5,4
4110,2,7,7,4,-6,10,4,4
4111,0,6,4,4,-6,8,3,4
4112,-2,5,0,3,-5,5,2,4
4113,-4,5,-4,2,-4,0,1,3
4114,-5,5,-7,1,-4,-6,-1,2
4115,-7,6,-7,0,-4,-10,-2,1
4116,-7,8,-7,0,-4,-11,-2,1
4117,-6,10,-5,-1,-4,-11,-1,0
4118,-5,11,-3,-1,-4,-10,-1,0
4119,-3,11,-2,0,-3,-9,1,0
4120,-2,11,0,1,-2,-8,2,0
4121,-1,10,1,2,-1,-5,3,0
4122,0,9,3,2,-1,-1,3,0
4123,0,9,4,2,-1,2,3,1
4124,0,8,5,3,-1,5,3,1
4125,1,8,7,3,-2,8,3,2
4126,1,7,8,3,-3,8,3,2
4127,0,7,9,3,-4,8,3,3
4128,-1,7,10,3,-5,10,2,4
4129,-2,8,12,4,-6,14,2,5
4130,-3,8,14,4,-7,18,1,5
4131,-5,9,16,4,-7,21,0,5
4132,-6,9,18,4,-7,23,-1,5
4133,-7,9,19,3,-7,23,-1,5
4134,-8,9,19,2,-7,22,-2,5
4135,-9,8,19,1,-7,21,-2,5
4136,-9,8,18,1,-6,20,-3,4
4137,-9,7,17,1,-6,19,-3,4
4138,-8,8,14,1,-6,18,-2,3
4139,-6,8,11,2,-5,17,-1,3
4140,-4,9,7,4,-4,15,1,3
4141,-2,9,5,5,-3,12,2,3
4142,-1,10,3,5,-1,9,2,3
4143,0,11,3,5,1,7,3,4
4144,0,12,2,5,2,7,3,4
4145,-1,13,2,4,2,7,4,5
4146,-1,13,2,4,2,7,4,5
4147,-2,13,1,3,0,8,4,5
4148,-3,12,0,3,-3,9,4,4
4149,-4,10,1,2,-5,10,4,2
4150,-4,9,2,2,-6,11,4,0
4151,-4,8,2,2,-7,12,4,-1
4152,-4,8,3,2,-7,14,4,-2
4153,-4,8,3,3,-6,15,4,-1
4154,-4,9,3,3,-5,17,4,-1
4155,-3,9,4,4,-4,19,4,0
4156,-3,8,5,4,-3,21,4,0
4157,-3,8,8,5,-1,22,4,1
4158,-2,7,10,5,1,21,3,1
4159,-2,6,11,4,2,20,2,2
4160,-2,5,10,3,3,17,1,2
4161,-2,4,9,3,4,14,1,2
4162,-2,4,9,2,5,12,0,3
4163,0,5,8,3,5,13,1,3
4164,2,6,7,4,4,16,2,4
4165,3,8,7,5,2,21,3,5
4166,4,8,6,6,1,25,3,6
4167,4,8,6,6,-1,27,3,6
4168,3,7,6,6,-2,26,3,5
4169,3,6,8,6,-2,24,2,4
4170,2,4,9,6,-3,20,2,3
4171,1,3,10,6,-3,17,1,3
4172,1,2,10,6,-4,14,1,2
4173,1,1,9,5,-4,12,0,1
4174,1,1,7,4,-4,11,-1,-1
4175,1,1,7,3,-5,11,-1,-2
4176,0,2,7,2,-5,12,-2,-2
4177,0,3,7,2,-5,14,-3,-1
4178,0,4,7,2,-5,14,-3,-1
4179,0,5,7,2,-5,13,-3,0
4180,0,4,6,3,-4,11,-4,0
4181,1,3,4,3,-3,8,-3,0
4182,0,3,3,5,-2,5,-2,1
4183,-1,5,1,6,1,3,-1,1
4184,-1,6,1,7,3,1,0,2
4185,-1,8,1,7,5,1,2,3
4186,0,8,0,8,7,1,2,3
4187,1,7,-1,7,7,-1,3,2
4188,3,6,-2,6,7,-2,2,1
4189,4,4,-3,5,5,-2,1,-1
4190,4,3,-3,4,4,-1,0,-2
4191,4,3,-3,3,3,1,-1,-2
4192,3,3,-2,2,3,2,-2,-2
4193,1,2,-1,0,4,4,-3,-1
4194,-1,1,1,-1,5,4,-3,0
4195,-3,-1,1,-3,6,1,-4,0
4196,-5,-2,0,-4,6,-2,-5,0
4197,-7,-3,-2,-5,6,-4,-6,-1
4198,-8,-3,-4,-6,5,-4,-7,-1
4199,-7,-4,-6,-6,5,-4,-8,-1
4200,-7,-4,-7,-6,5,-6,-8,0
4201,-6,-5,-7,-5,5,-7,-7,0
4202,-6,-7,-5,-4,4,-9,-7,1
4203,-6,-9,-3,-4,3,-11,-6,0
4204,-5,-11,-2,-4,2,-13,-6,-1
4205,-5,-12,-1,-3,1,-13,-5,-2
4206,-4,-13,-2,-3,-1,-14,-5,-3
4207,-2,-13,-4,-2,-2,-14,-4,-4
4208,-1,-13,-5,-1,-3,-16,-3,-4
4209,0,-12,-5,0,-4,-18,-2,-5
4210,0,-12,-5,1,-5,-19,-1,-5
4211,1,-11,-4,1,-5,-18,-1,-5
4212,1,-9,-3,2,-4,-17,-1,-5
4213,1,-7,-2,3,-3,-17,-1,-4
4214,1,-6,-1,2,-2,-17,-1,-3
4215,1,-4,0,2,-2,-16,-1,-2
4216,1,-4,0,0,-2,-14,-2,-2
4217,1,-3,0,-1,-2,-10,-2,0
4218,0,-3,0,-2,-2,-8,-3,1
4219,0,-3,-1,-2,-3,-7,-3,2
4220,0,-3,0,-2,-4,-7,-4,2
4221,0,-4,1,-2,-5,-8,-4,2
4222,-1,-4,3,-1,-7,-9,-4,1
4223,-2,-4,5,-1,-9,-8,-3,1
4224,-2,-5,7,-1,-10,-4,-3,0
4225,-2,-5,9,0,-10,2,-2,0
4226,-2,-5,11,0,-10,5,-2,0
4227,-2,-4,12,1,-9,7,-1,1
4228,-3,-4,14,2,-8,7,-1,1
4229,-4,-3,14,2,-7,7,-1,2
4230,-4,-3,14,2,-7,7,-2,2
4231,-5,-2,14,2,-8,6,-3,2
4232,-4,-1,14,0,-8,4,-3,3
4233,-4,-1,14,-1,-8,3,-4,3
4234,-3,-1,13,-2,-7,4,-4,4
4235,-2,0,11,-1,-5,5,-3,5
4236,-2,0,9,0,-4,5,-3,6
4237,-2,0,8,2,-2,4,-2,7
4238,-2,1,9,3,-1,2,-1,8
4239,-2,2,9,4,-1,-1,-1,9
4240,-3,4,10,3,0,-3,-1,9
4241,-4,5,10,3,1,-5,-1,9
4242,-4,5,10,2,1,-5,-1,9
4243,-4,5,9,1,1,-4,-1,8
4244,-4,4,10,0,1,-4,-2,7
4245,-4,2,12,-1,0,-4,-2,5
4246,-4,1,14,-2,0,-3,-2,3
4247,-4,-1,17,-2,0,-1,-3,1
4248,-4,-1,18,-1,0,3,-3,-1
4249,-4,-1,18,-1,-1,5,-3,-1
4250,-5,-1,18,-1,-1,7,-3,1
4251,-5,0,17,-1,0,7,-4,2
4252,-5,1,16,-1,1,6,-3,3
4253,-5,2,15,-2,3,5,-3,4
4254,-4,3,14,-2,5,5,-3,5
4255,-3,4,14,-3,7,5,-3,5
4256,-2,4,13,-3,8,5,-2,5
4257,-2,4,12,-3,9,5,-2,5
4258,-2,3,11,-2,9,3,-1,5
4259,-2,3,10,-1,8,1,-1,7
4260,-2,3,10,0,8,-1,1,8
4261,-1,4,10,1,8,-3,1,8
4262,-1,4,10,0,8,-2,2,8
4263,-1,5,10,1,8,-1,2,7
4264,0,5,9,1,9,0,2,6
4265,0,5,9,1,9,1,2,5
4266,0,5,9,1,10,2,2,4
4267,0,6,10,2,11,1,2,4
4268,0,6,9,2,11,0,3,3
4269,1,7,7,2,11,-2,3,3
4270,1,8,4,3,11,-3,4,4
4271,1,8,1,4,10,-3,4,5
4272,2,8,-1,5,8,-3,4,6
4273,2,7,-2,5,7,-1,4,7
4274,2,5,-3,5,5,0,3,6
4275,1,4,-4,5,3,1,2,6
4276,0,2,-6,4,1,1,1,5
4277,-2,1,-9,3,-1,0,0,4
4278,-3,-1,-12,1,-2,-2,0,2
4279,-3,-3,-15,0,-4,-5,-1,0
4280,-3,-4,-15,-1,-5,-9,-1,-2
4281,-2,-5,-13,-2,-5,-13,0,-2
4282,-2,-5,-9,-2,-5,-16,0,-2
4283,-2,-4,-4,-2,-3,-16,1,0
4284,-1,-3,-2,-2,-1,-14,1,2
4285,0,-2,0,-2,1,-11,2,3
4286,1,-1,1,-1,2,-8,3,5
4287,2,-1,1,-1,3,-5,4,5
4288,3,-1,1,-1,4,-2,4,6
4289,4,-1,1,-1,5,0,4,6
4290,4,-1,1,-1,5,2,4,6
4291,3,0,2,0,4,3,4,5
4292,1,1,3,1,2,5,4,5
4293,0,1,4,2,0,7,4,4
4294,-1,1,6,3,-2,8,4,4
4295,-2,1,8,4,-2,8,4,4
4296,-2,0,9,4,-1,7,4,4
4297,-1,-1,9,4,0,7,4,4
4298,-1,-1,9,4,1,6,4,3
4299,-1,0,9,4,1,6,4,2
4300,-2,1,7,3,2,7,3,2
4301,-3,2,5,1,3,8,2,1
4302,-4,3,3,0,4,8,2,1
4303,-4,3,1,-2,4,8,1,1
4304,-4,2,0,-3,4,9,1,1
4305,-4,0,0,-3,4,9,1,1
4306,-4,-1,-1,-2,3,9,2,2
4307,-5,-1,-2,-2,3,8,2,3
4308,-5,-1,-3,-2,2,6,2,3
4309,-6,-2,-3,-2,1,5,2,3
4310,-6,-3,-3,-2,1,5,2,2
4311,-6,-6,-4,-2,1,7,2,1
4312,-5,-8,-4,-1,1,8,2,0
4313,-4,-10,-4,-1,1,7,2,-1
4314,-4,-10,-4,-1,1,5,2,-2
4315,-4,-10,-4,-1,1,2,1,-3
4316,-5,-9,-3,-1,2,1,1,-3
4317,-6,-7,-1,-2,2,1,0,-3
4318,-6,-4,2,-3,3,3,-1,-2
4319,-6,-2,4,-3,3,5,-2,-1
4320,-6,1,6,-3,3,8,-2,-1
4321,-7,3,7,-3,3,11,-2,-1
4322,-7,5,6,-3,3,14,-2,-2
4323,-8,6,5,-2,2,15,-1,-3
4324,-8,7,3,0,2,16,1,-3
4325,-8,8,1,1,1,16,2,-3
4326,-8,7,-1,2,0,14,2,-2
4327,-7,6,-2,2,-1,12,2,-1
4328,-6,5,-2,2,-1,11,2,-1
4329,-5,5,-2,2,-1,10,2,-1
4330,-4,5,-1,2,-2,9,2,0
4331,-3,5,0,2,-2,9,2,0
4332,-3,5,0,2,-2,7,2,1
4333,-2,5,0,2,-2,6,3,1
4334,-1,5,-1,3,-1,4,4,2
4335,-2,5,-2,4,1,2,4,3
4336,-3,5,-2,5,2,-1,4,3
4337,-4,6,-1,5,2,-3,4,4
4338,-5,7,-1,5,3,-3,3,4
4339,-6,8,0,5,3,-1,3,4
4340,-7,9,0,5,3,0,2,4
4341,-7,11,0,5,4,2,3,4
4342,-6,12,0,5,4,3,3,4
4343,-7,14,1,5,4,3,3,4
4344,-7,14,1,5,3,2,2,4
4345,-8,15,1,5,2,0,2,3
4346,-8,14,0,5,0,-1,1,3
4347,-7,13,-1,5,-1,-2,0,3
4348,-6,12,-1,5,-1,-2,0,4
4349,-5,11,-1,5,0,-1,0,5
4350,-4,10,1,4,2,1,1,6
4351,-2,10,4,4,3,3,2,7
4352,-1,9,6,4,4,6,3,7
4353,1,9,7,4,4,9,3,7
4354,3,8,6,5,3,13,4,6
4355,5,7,5,5,1,16,4,4
4356,6,6,4,4,-2,17,4,3
4357,7,7,3,4,-3,16,4,4
4358,7,7,1,5,-4,14,4,5
4359,7,7,-1,5,-4,10,4,6
4360,7,6,-4,5,-3,6,4,7
4361,5,5,-6,4,-3,2,3,6
4362,3,4,-7,2,-4,-1,3,5
4363,0,4,-8,1,-4,-3,2,3
4364,-2,4,-8,-1,-3,-3,1,2
4365,-4,5,-7,-2,-3,-2,-1,2
4366,-4,6,-7,-3,-2,0,-1,3
4367,-3,7,-8,-3,-3,1,-2,4
4368,-3,7,-8,-3,-4,2,-2,5
4369,-2,7,-7,-4,-6,3,-2,4
4370,-2,6,-6,-4,-8,5,-3,4
4371,-3,5,-4,-5,-10,8,-3,3
4372,-3,5,-3,-6,-12,10,-4,2
4373,-3,5,-3,-6,-14,11,-4,2
4374,-3,6,-5,-6,-14,9,-4,1
4375,-1,6,-8,-5,-13,7,-4,0
4376,0,6,-10,-4,-12,4,-3,-1
4377,2,6,-11,-3,-10,1,-2,0
4378,5,6,-11,-2,-8,-1,-1,1
4379,7,6,-11,-1,-7,-3,0,3
4380,10,6,-10,0,-6,-3,1,7
4381,11,6,-8,1,-6,-2,2,10
4382,12,6,-8,2,-6,1,2,13
4383,12,6,-7,2,-7,4,2,14
4384,11,5,-7,1,-8,7,2,16
4385,10,5,-7,1,-9,8,1,15
4386,9,5,-8,0,-8,9,0,14
4387,7,5,-9,-1,-7,9,0,12
4388,6,5,-8,-1,-6,9,0,11
4389,6,5,-6,-1,-5,9,1,8
4390,5,4,-4,0,-5,10,1,6
4391,6,3,-2,1,-5,11,1,4
4392,6,1,-1,2,-6,13,1,2
4393,7,0,-1,4,-6,14,0,2
4394,7,0,-1,5,-6,15,0,2
4395,6,0,-1,5,-5,15,-1,2
4396,6,1,-2,6,-4,14,0,3
4397,7,2,-1,6,-3,12,1,3
4398,7,3,-1,7,-2,9,2,4
4399,7,4,-1,7,-1,6,4,4
4400,7,6,-3,7,-1,2,5,5
4401,7,8,-5,7,0,-3,6,7
4402,6,10,-8,7,0,-7,6,8
4403,6,12,-10,7,1,-10,7,9
4404,5,13,-11,7,2,-11,7,10
4405,6,12,-11,7,3,-10,6,9
4406,6,10,-10,7,4,-8,6,8
4407,6,7,-8,7,5,-5,5,7
4408,5,2,-6,6,4,-2,4,5
4409,4,-1,-4,6,3,-1,3,4
4410,2,-4,-2,6,2,0,2,3
4411,1,-6,-1,6,1,-1,1,2
4412,-1,-7,0,5,0,-4,-1,-1
4413,-2,-8,0,5,-1,-8,-1,-3
4414,-2,-9,0,4,-2,-10,-2,-5
4415,-2,-9,-1,3,-2,-10,-2,-7
4416,-1,-8,-2,2,-2,-8,-1,-7
4417,1,-7,-2,1,-2,-5,-1,-6
4418,1,-6,-2,1,-1,-2,-1,-5
4419,1,-5,0,1,-1,2,-1,-5
4420,-1,-4,2,0,0,5,-1,-6
4421,-2,-3,5,0,1,6,-1,-6
4422,-2,-2,6,0,1,6,-1,-7
4423,-1,-1,7,1,1,6,0,-7
4424,1,1,8,2,1,8,2,-7
4425,3,2,9,4,1,9,3,-7
4426,6,4,9,4,2,10,5,-6
4427,8,5,8,5,2,12,6,-6
4428,11,7,6,6,3,13,8,-4
4429,14,8,4,7,3,14,9,-2
4430,17,9,3,9,3,15,10,1
4431,19,9,3,10,2,16,11,3
4432,21,8,3,11,2,16,11,5
4433,22,7,4,12,3,14,11,5
4434,21,5,4,12,3,12,11,5
4435,20,4,5,13,2,10,10,4
4436,19,2,7,13,1,11,9,2
4437,17,1,8,13,-2,12,9,0
4438,15,-1,8,12,-4,14,7,-3
4439,13,-2,8,11,-7,16,6,-5
4440,11,-2,7,10,-9,16,4,-7
4441,10,-2,8,9,-10,16,3,-9
4442,9,-1,11,8,-10,15,2,-9
4443,8,0,14,8,-10,15,2,-9
4444,8,2,17,8,-9,15,2,-7
4445,9,3,17,9,-7,16,3,-5
4446,10,5,16,9,-5,17,3,-2
4447,11,6,13,10,-3,18,4,1
4448,12,7,11,10,-3,19,5,3
4449,12,8,10,11,-4,19,6,4
4450,12,7,9,11,-5,19,7,4
4451,12,6,10,11,-7,18,8,3
4452,12,5,11,10,-8,17,8,3
4453,11,4,13,10,-9,17,7,2
4454,10,4,16,10,-9,19,6,2
4455,10,4,20,10,-9,22,5,2
4456,10,6,22,10,-9,24,6,3
4457,10,7,23,12,-8,24,6,4
4458,10,9,23,13,-6,23,7,4
4459,10,11,21,14,-3,22,8,5
4460,9,12,20,15,-1,19,9,5
4461,9,14,19,15,1,18,10,4
4462,9,15,18,15,3,18,10,3
4463,8,16,19,15,4,19,10,1
4464,8,17,21,15,5,22,9,0
4465,7,17,23,14,7,24,8,-1
4466,7,16,24,13,8,27,6,-1
4467,6,15,25,12,9,29,5,-1
4468,6,14,26,11,9,29,4,0
4469,5,13,25,10,9,27,3,1
4470,5,12,23,9,10,25,3,2
4471,6,11,20,8,10,22,2,3
4472,5,10,17,8,9,20,2,3
4473,5,9,13,7,8,16,1,3
4474,4,8,10,7,7,12,1,2
4475,3,8,8,6,5,8,0,1
4476,1,7,8,6,4,7,0,1
4477,-1,6,10,5,4,7,-1,1
4478,-2,5,12,3,4,8,-2,0
4479,-4,3,15,1,4,10,-3,-1
4480,-5,1,17,0,3,12,-4,-2
4481,-7,-1,18,-1,2,12,-4,-3
4482,-8,-1,18,-1,1,12,-4,-3
4483,-9,-1,17,-1,1,12,-4,-3
4484,-8,1,16,-1,2,12,-4,-2
4485,-7,4,14,0,3,13,-3,0
4486,-6,7,12,2,5,13,-2,3
4487,-3,11,11,4,8,11,-1,6
4488,-1,16,8,7,11,6,2,10
4489,2,19,5,10,16,0,4,14
4490,4,22,2,12,19,-5,7,18
4491,5,24,-3,14,22,-9,9,22
4492,6,24,-7,15,22,-11,11,24
4493,6,24,-10,14,21,-12,11,25
4494,6,22,-11,13,18,-10,11,23
4495,7,20,-10,11,14,-5,10,20
4496,7,17,-9,9,10,0,9,16
4497,7,14,-6,8,6,5,8,10
4498,8,10,-3,7,3,10,7,4
4499,8,7,-1,6,1,12,6,-1
4500,8,4,3,6,2,13,6,-6
4501,7,2,6,6,3,12,6,-9
4502,6,1,10,6,6,12,5,-11
4503,4,1,12,6,8,10,5,-11
4504,2,3,13,7,12,8,4,-10
4505,0,5,14,8,16,4,3,-8
4506,-2,8,13,9,20,1,2,-5
4507,-3,11,12,10,24,-2,1,-1
4508,-4,13,9,10,28,-3,0,4
4509,-4,14,6,9,32,-6,-1,8
4510,-4,14,2,9,34,-9,-2,12
4511,-4,13,-2,8,37,-13,-3,17
4512,-3,12,-4,8,38,-17,-3,21
4513,-3,9,-5,8,39,-20,-2,23
4514,-3,7,-5,8,38,-21,-2,24
4515,-3,6,-4,8,35,-19,-1,22
4516,-4,5,-3,7,31,-14,-2,19
4517,-5,5,-2,6,25,-9,-2,13
4518,-6,6,-1,4,20,-3,-3,9
4519,-6,6,2,2,16,3,-4,4
4520,-5,6,4,0,13,8,-4,1
4521,-4,7,6,-1,11,10,-4,-1
4522,-3,7,7,0,10,9,-3,-2
4523,-1,9,8,2,11,7,-1,-2
4524,0,11,8,4,14,6,0,-1
4525,1,13,9,5,17,5,1,0
4526,1,16,9,6,21,4,1,1
4527,-1,18,8,7,23,1,0,3
4528,-2,19,8,8,26,-2,0,4
4529,-2,19,7,8,28,-6,0,6
4530,-3,17,7,9,30,-8,0,8
4531,-3,16,6,8,31,-11,1,10
4532,-2,13,3,8,31,-13,2,13
4533,-2,12,-1,8,31,-14,3,16
4534,-2,10,-4,7,31,-15,3,17
4535,-2,10,-7,7,30,-18,4,18
4536,-2,9,-9,7,29,-19,4,17
4537,-2,10,-9,7,28,-19,4,16
4538,-2,11,-9,6,27,-18,4,13
4539,-2,11,-9,5,26,-16,3,10
4540,-3,11,-10,3,23,-14,2,7
4541,-4,11,-10,0,21,-11,0,4
4542,-5,10,-9,-2,17,-9,-2,1
4543,-6,8,-7,-4,13,-8,-3,-3
4544,-6,6,-7,-5,11,-8,-4,-5
4545,-6,5,-8,-5,11,-8,-4,-7
4546,-5,4,-9,-4,12,-7,-4,-8
4547,-4,4,-8,-2,15,-6,-2,-8
4548,-3,3,-6,1,18,-6,-1,-7
4549,-2,3,-3,2,21,-5,1,-5
4550,-2,3,0,4,23,-4,2,-4
4551,-2,3,2,4,24,-3,2,-2
4552,-2,3,2,5,24,-4,2,-1
4553,-3,3,-1,5,24,-6,2,1
4554,-4,4,-4,5,22,-9,2,2
4555,-5,5,-6,4,19,-10,2,3
4556,-5,5,-9,4,16,-10,3,4
4557,-6,5,-10,3,12,-10,3,4
4558,-6,5,-11,3,8,-8,4,2
4559,-5,5,-11,3,5,-8,4,-1
4560,-4,5,-11,3,3,-8,4,-4
4561,-2,6,-11,3,1,-9,4,-8
4562,-1,7,-9,4,1,-6,4,-11
4563,0,7,-8,4,1,-2,4,-14
4564,1,6,-5,4,1,2,3,-17
4565,1,6,-4,4,1,5,2,-19
4566,1,6,-2,3,1,5,1,-19
