Time,F3 - C3,C3 - P3,P3 - O1,F4 - C4,C4 - P4,P4 - O2,FZ - CZ,CZ - PZ
1,-13,1,-149,-7,-5,-31,-11,-4
2,-14,1,-148,-7,-5,-33,-11,-5
3,-15,1,-146,-8,-5,-34,-12,-5
4,-17,2,-145,-9,-5,-35,-13,-5
5,-17,3,-145,-10,-4,-36,-13,-5
6,-18,4,-147,-11,-4,-38,-14,-4
7,-19,5,-148,-12,-4,-37,-15,-4
8,-20,5,-149,-13,-4,-36,-16,-4
9,-20,5,-149,-15,-4,-36,-17,-5
10,-21,3,-147,-16,-4,-36,-18,-6
11,-21,0,-144,-18,-4,-33,-19,-7
12,-21,-3,-141,-18,-4,-28,-20,-8
13,-21,-5,-140,-19,-5,-23,-19,-9
14,-21,-7,-139,-19,-5,-20,-18,-9
15,-21,-7,-140,-19,-6,-19,-18,-10
16,-21,-8,-142,-18,-6,-22,-17,-11
17,-20,-8,-143,-18,-6,-26,-17,-12
18,-20,-8,-145,-17,-5,-30,-18,-11
19,-20,-7,-147,-16,-5,-33,-18,-10
20,-21,-5,-150,-16,-5,-37,-18,-8
21,-21,-3,-152,-15,-4,-40,-18,-6
22,-21,-1,-155,-15,-4,-45,-18,-5
23,-21,0,-160,-14,-4,-53,-18,-4
24,-21,0,-164,-14,-4,-62,-18,-4
25,-21,0,-160,-13,-3,-56,-17,-4
26,-20,0,-145,-13,-3,-23,-17,-4
27,-19,-1,-138,-12,-2,3,-17,-4
28,-17,-1,-160,-11,0,-41,-19,-5
29,-16,-2,-192,-11,2,-132,-22,-5
30,-16,-2,-194,-10,2,-163,-23,-4
31,-17,-1,-158,-10,1,-91,-23,-3
32,-18,-1,-121,-11,0,9,-23,-3
33,-20,-1,-112,-11,0,53,-23,-3
34,-22,-1,-125,-12,0,39,-24,-3
35,-24,-1,-137,-14,0,14,-24,-4
36,-25,-1,-138,-15,-1,12,-25,-4
37,-27,-1,-126,-16,-2,39,-25,-5
38,-28,-2,-110,-17,-3,85,-26,-5
39,-30,-2,-100,-17,-4,118,-28,-6
40,-31,-2,-105,-18,-5,110,-29,-6
41,-31,-2,-118,-18,-5,73,-31,-6
42,-32,-1,-122,-19,-5,49,-31,-5
43,-32,1,-110,-19,-5,66,-30,-5
44,-32,2,-95,-20,-5,104,-30,-5
45,-31,3,-94,-20,-4,118,-28,-5
46,-30,3,-108,-19,-3,92,-27,-5
47,-27,4,-120,-18,-2,59,-25,-5
48,-25,5,-119,-16,-1,56,-24,-3
49,-23,5,-113,-14,-1,71,-21,-2
50,-21,5,-119,-13,0,65,-19,-2
51,-18,5,-137,-11,0,22,-18,-2
52,-17,4,-150,-10,0,-18,-16,-3
53,-16,2,-148,-10,-1,-21,-14,-3
54,-15,1,-140,-9,-2,-3,-13,-4
55,-15,1,-145,-10,-2,-9,-13,-4
56,-16,1,-164,-10,-3,-54,-14,-4
57,-16,1,-173,-11,-2,-91,-14,-4
58,-16,1,-155,-12,-2,-67,-14,-4
59,-16,2,-125,-12,-2,3,-13,-3
60,-16,2,-117,-11,-1,33,-13,-2
61,-17,3,-154,-11,0,-46,-14,-1
62,-17,3,-208,-11,2,-190,-16,-1
63,-18,4,-222,-10,2,-264,-17,0
64,-19,5,-178,-9,2,-188,-15,1
65,-19,5,-118,-9,1,-37,-13,1
66,-19,5,-90,-8,1,63,-12,1
67,-18,4,-100,-8,1,65,-12,1
68,-17,4,-124,-7,1,16,-12,1
69,-16,4,-136,-6,0,-21,-11,1
70,-15,4,-134,-5,-1,-23,-10,2
71,-14,4,-126,-4,-2,-4,-8,2
72,-13,4,-126,-3,-3,4,-7,1
73,-12,3,-140,-4,-3,-24,-7,0
74,-11,3,-160,-4,-3,-78,-6,0
75,-10,3,-172,-4,-4,-116,-6,0
76,-9,3,-165,-3,-4,-113,-4,1
77,-9,3,-152,-2,-4,-86,-3,1
78,-8,2,-149,-2,-4,-79,-3,2
79,-8,1,-151,-2,-4,-89,-3,2
80,-8,-1,-140,-2,-4,-72,-4,1
81,-9,-2,-107,-3,-3,-4,-5,1
82,-9,-2,-73,-4,-1,82,-7,1
83,-9,-2,-63,-5,1,121,-9,0
84,-10,-1,-83,-6,2,86,-11,0
85,-11,0,-110,-6,3,18,-12,0
86,-13,1,-124,-7,4,-25,-13,0
87,-15,2,-121,-8,3,-28,-14,-1
88,-17,3,-118,-9,3,-18,-15,-2
89,-18,2,-122,-10,3,-22,-17,-3
90,-18,1,-125,-11,3,-29,-18,-3
91,-18,0,-119,-11,2,-17,-17,-4
92,-17,-1,-108,-11,1,11,-16,-5
93,-17,-1,-103,-11,-1,28,-15,-5
94,-16,-2,-109,-10,-2,16,-14,-5
95,-16,-1,-116,-10,-2,-7,-13,-4
96,-16,0,-114,-9,-2,-12,-12,-4
97,-15,1,-106,-7,-2,3,-11,-3
98,-14,2,-101,-6,-2,16,-10,-2
99,-13,2,-103,-4,-1,15,-10,-1
100,-12,1,-105,-3,0,7,-9,-1
101,-10,-1,-102,-1,0,11,-8,-1
102,-8,-2,-94,-1,1,27,-7,-2
103,-7,-2,-88,0,0,45,-6,-2
104,-6,-3,-86,0,0,55,-4,-3
105,-6,-3,-86,0,-1,57,-4,-4
106,-6,-2,-86,-1,-1,56,-4,-4
107,-6,-2,-87,-2,-1,51,-5,-4
108,-7,-2,-93,-3,-1,38,-7,-4
109,-8,-2,-103,-4,-1,11,-8,-3
110,-8,-2,-116,-5,-1,-23,-10,-3
111,-9,-2,-128,-6,-2,-56,-10,-3
112,-10,-2,-138,-6,-3,-86,-10,-4
113,-12,-2,-148,-6,-3,-114,-10,-5
114,-13,-1,-156,-6,-2,-140,-10,-5
115,-13,-1,-160,-6,-1,-159,-10,-5
116,-13,-1,-160,-5,-1,-168,-9,-5
117,-13,-1,-155,-4,0,-166,-9,-5
118,-13,-2,-152,-4,1,-162,-8,-5
119,-13,-3,-148,-4,2,-156,-8,-5
120,-12,-4,-141,-4,3,-142,-9,-5
121,-11,-5,-133,-4,4,-121,-9,-4
122,-9,-6,-126,-4,4,-101,-9,-4
123,-8,-6,-117,-4,4,-80,-9,-3
124,-7,-5,-108,-4,4,-63,-8,-3
125,-7,-4,-100,-4,3,-62,-7,-2
126,-8,-2,-93,-4,3,-75,-6,-2
127,-8,-1,-83,-3,4,-84,-6,-1
128,-8,1,-68,-3,4,-79,-5,-1
129,-8,1,-54,-2,4,-63,-5,-1
130,-8,1,-49,-2,4,-51,-4,-1
131,-8,1,-52,-2,4,-50,-4,-1
132,-8,0,-57,-3,3,-53,-4,-2
133,-9,-1,-56,-3,3,-52,-4,-3
134,-9,-2,-53,-4,2,-47,-5,-3
135,-9,-2,-51,-4,1,-43,-6,-4
136,-10,-3,-54,-5,1,-50,-7,-5
137,-10,-3,-60,-5,1,-65,-8,-5
138,-11,-2,-64,-5,1,-77,-9,-5
139,-13,-2,-64,-5,1,-79,-10,-4
140,-14,-1,-63,-5,1,-75,-11,-4
141,-15,-1,-63,-5,0,-69,-13,-3
142,-16,-1,-62,-4,0,-61,-14,-3
143,-15,-1,-55,-3,-1,-41,-14,-2
144,-14,0,-42,-1,-1,-5,-13,-2
145,-12,1,-28,1,-1,36,-12,-1
146,-10,1,-20,3,0,66,-10,-1
147,-7,3,-21,4,1,71,-8,0
148,-6,5,-31,5,1,52,-7,2
149,-4,6,-46,6,1,17,-6,2
150,-4,7,-63,6,1,-26,-5,3
151,-4,8,-79,6,0,-68,-5,1
152,-4,7,-92,5,-1,-103,-5,0
153,-5,5,-100,4,-2,-128,-5,-2
154,-5,4,-103,4,-3,-141,-5,-3
155,-5,2,-103,4,-3,-145,-5,-3
156,-5,1,-103,4,-2,-149,-4,-3
157,-5,0,-104,5,-1,-157,-3,-2
158,-5,-1,-105,7,0,-166,-3,-1
159,-5,0,-105,8,2,-174,-2,1
160,-5,1,-103,8,3,-179,-2,2
161,-4,2,-103,8,3,-184,-2,3
162,-4,3,-104,7,3,-190,-2,3
163,-4,3,-106,6,3,-195,-2,3
164,-4,3,-106,4,2,-196,-2,3
165,-4,3,-106,3,1,-192,-2,3
166,-5,4,-106,2,1,-186,-2,4
167,-5,5,-107,1,0,-180,-1,5
168,-5,6,-107,2,0,-174,0,6
169,-4,8,-107,2,0,-166,1,6
170,-4,8,-107,3,0,-160,2,6
171,-3,8,-108,3,-1,-157,2,5
172,-3,7,-111,3,-1,-159,1,4
173,-4,5,-113,2,-2,-164,-1,2
174,-5,4,-115,1,-2,-168,-3,1
175,-5,1,-114,1,-3,-170,-5,-1
176,-6,-1,-113,0,-4,-168,-7,-3
177,-7,-2,-113,0,-4,-165,-8,-4
178,-8,-4,-117,0,-4,-160,-8,-6
179,-8,-4,-125,0,-4,-155,-8,-7
180,-8,-4,-139,1,-3,-151,-7,-7
181,-7,-4,-154,2,-2,-147,-6,-6
182,-5,-4,-167,3,-1,-144,-5,-5
183,-3,-4,-175,4,0,-140,-3,-4
184,-2,-3,-176,5,1,-133,-2,-2
185,-1,-3,-173,6,1,-124,-1,-1
186,-1,-2,-169,6,1,-115,0,0
187,-1,0,-165,7,1,-107,1,1
188,0,2,-162,8,0,-97,2,2
189,1,4,-160,9,-1,-89,4,4
190,3,6,-159,9,-1,-85,5,5
191,5,7,-159,10,-1,-88,7,7
192,7,7,-158,11,-1,-93,9,7
193,8,7,-156,11,0,-95,10,7
194,8,6,-152,12,1,-96,10,7
195,8,6,-148,12,1,-99,11,6
196,8,5,-149,14,2,-110,13,6
197,10,4,-153,17,2,-127,17,5
198,14,3,-157,20,2,-140,22,4
199,17,3,-157,24,1,-144,26,3
200,21,2,-153,28,1,-139,30,3
201,23,1,-147,31,2,-128,33,3
202,24,1,-141,33,2,-119,34,3
203,25,1,-139,35,2,-117,35,4
204,27,2,-140,37,3,-124,37,5
205,28,2,-144,39,4,-132,39,6
206,28,3,-145,40,4,-136,40,7
207,28,5,-145,40,5,-133,40,8
208,28,7,-144,39,6,-126,40,9
209,27,10,-144,38,7,-117,39,10
210,26,12,-144,36,7,-109,37,11
211,24,14,-146,35,8,-104,35,11
212,21,15,-148,32,8,-102,33,12
213,18,16,-149,30,8,-103,29,12
214,14,16,-149,26,8,-105,25,11
215,10,14,-150,23,8,-108,21,10
216,6,12,-151,20,7,-111,17,8
217,4,10,-155,16,5,-114,13,6
218,1,7,-164,13,4,-115,10,4
219,-1,5,-178,11,3,-114,6,3
220,-3,3,-195,8,2,-109,4,2
221,-5,2,-210,7,1,-101,1,2
222,-8,1,-220,5,0,-92,-1,1
223,-10,2,-223,3,-1,-85,-3,1
224,-11,2,-222,2,-1,-85,-4,0
225,-12,2,-221,1,-1,-92,-5,0
226,-12,3,-223,0,0,-106,-5,-1
227,-12,3,-225,-1,1,-121,-6,-1
228,-12,3,-225,-3,1,-132,-6,-1
229,-13,3,-219,-4,1,-136,-7,-1
230,-13,2,-210,-5,1,-135,-8,-2
231,-14,1,-200,-6,1,-132,-10,-4
232,-15,0,-193,-8,1,-128,-11,-5
233,-16,-1,-187,-9,0,-125,-13,-6
234,-18,-1,-183,-11,0,-121,-15,-7
235,-19,-1,-181,-12,0,-121,-17,-7
236,-19,-1,-180,-13,-1,-123,-18,-8
237,-19,-1,-179,-14,-1,-124,-18,-8
238,-19,0,-176,-13,-1,-122,-17,-8
239,-19,0,-172,-12,-1,-116,-16,-7
240,-19,0,-169,-11,-1,-109,-15,-7
241,-19,0,-165,-10,-1,-101,-14,-6
242,-18,-1,-162,-9,-1,-93,-14,-6
243,-18,-3,-158,-9,-1,-85,-15,-6
244,-18,-5,-154,-9,-2,-78,-16,-6
245,-18,-7,-149,-10,-2,-67,-17,-8
246,-18,-9,-142,-11,-3,-56,-17,-9
247,-18,-10,-137,-12,-4,-48,-18,-10
248,-18,-11,-133,-13,-5,-43,-18,-12
249,-18,-12,-130,-14,-6,-39,-18,-12
250,-17,-12,-126,-15,-7,-35,-18,-13
251,-17,-11,-122,-16,-8,-32,-19,-12
252,-17,-10,-119,-17,-8,-31,-19,-12
253,-17,-9,-115,-17,-8,-29,-20,-11
254,-17,-8,-112,-16,-8,-25,-20,-10
255,-17,-7,-107,-15,-8,-19,-19,-9
256,-17,-6,-101,-14,-7,-10,-19,-9
257,-18,-4,-96,-12,-6,-3,-18,-8
258,-18,-3,-93,-12,-5,4,-17,-7
259,-19,-2,-90,-11,-4,10,-17,-7
260,-19,-1,-88,-11,-3,16,-16,-6
261,-19,0,-86,-10,-3,21,-16,-5
262,-18,0,-87,-10,-2,26,-15,-5
263,-17,1,-89,-9,-2,28,-14,-5
264,-16,1,-92,-9,-3,30,-14,-5
265,-17,1,-95,-8,-4,31,-14,-6
266,-18,1,-96,-8,-5,34,-14,-6
267,-18,1,-96,-9,-6,38,-14,-6
268,-19,1,-95,-10,-6,40,-14,-6
269,-19,1,-97,-11,-6,36,-14,-6
270,-20,2,-101,-11,-6,27,-13,-5
271,-20,2,-99,-12,-6,30,-13,-4
272,-21,3,-91,-12,-5,55,-13,-4
273,-22,3,-80,-12,-5,96,-13,-3
274,-21,2,-66,-11,-5,148,-13,-4
275,-21,1,-55,-11,-5,199,-12,-4
276,-20,0,-51,-10,-5,226,-12,-5
277,-20,-1,-58,-9,-4,219,-11,-5
278,-20,-1,-70,-8,-3,187,-10,-5
279,-20,-1,-81,-8,-2,148,-9,-5
280,-21,0,-88,-8,-1,115,-10,-4
281,-21,1,-93,-8,0,89,-11,-3
282,-20,3,-98,-7,1,65,-11,-1
283,-19,4,-105,-7,1,39,-11,0
284,-18,5,-111,-6,1,14,-10,1
285,-17,6,-116,-6,0,-9,-9,1
286,-15,6,-119,-5,-2,-29,-7,0
287,-13,5,-119,-3,-3,-45,-5,0
288,-10,5,-123,-1,-3,-67,-2,0
289,-7,5,-146,1,-3,-130,1,-1
290,-5,5,-191,4,-2,-255,5,-1
291,-1,5,-231,7,-1,-390,10,-1
292,4,6,-236,12,-1,-453,17,0
293,9,7,-201,17,-1,-413,23,0
294,13,8,-136,21,-1,-279,29,1
295,17,9,-54,25,-1,-83,34,2
296,20,9,18,29,-1,114,38,2
297,22,9,57,30,-1,246,38,2
298,23,9,64,31,0,293,38,2
299,24,8,58,32,1,294,38,2
300,24,8,54,33,1,292,38,3
301,24,7,51,34,1,297,38,3
302,22,7,40,33,1,292,37,3
303,20,7,19,32,1,267,35,3
304,18,7,-3,30,0,232,33,3
305,14,7,-21,28,0,201,31,3
306,11,7,-35,25,-1,171,27,2
307,8,7,-48,22,-1,133,24,1
308,6,8,-65,20,-1,85,22,1
309,5,8,-82,19,-1,31,20,2
310,4,8,-101,17,-1,-25,18,2
311,3,7,-118,14,0,-78,15,2
312,1,6,-132,11,0,-121,11,3
313,-2,5,-142,8,0,-154,7,2
314,-5,4,-149,5,0,-177,3,2
315,-9,3,-152,1,0,-191,-2,1
316,-13,3,-152,-4,0,-193,-7,0
317,-17,3,-148,-8,0,-187,-11,-1
318,-20,2,-144,-11,-1,-176,-16,-2
319,-22,1,-137,-14,-2,-164,-19,-3
320,-21,-1,-127,-17,-2,-145,-21,-4
321,-20,-2,-114,-17,-2,-119,-21,-4
322,-19,-2,-101,-17,-1,-86,-21,-5
323,-19,-2,-88,-18,-1,-52,-21,-5
324,-20,-2,-81,-19,-2,-30,-22,-6
325,-21,-3,-81,-20,-2,-30,-24,-6
326,-23,-3,-85,-21,-3,-51,-26,-6
327,-23,-3,-87,-23,-3,-79,-27,-6
328,-24,-4,-84,-24,-4,-101,-27,-6
329,-23,-5,-77,-24,-4,-110,-28,-6
330,-23,-6,-63,-25,-5,-94,-28,-6
331,-24,-7,-37,-25,-5,-41,-30,-7
332,-24,-7,-7,-26,-5,39,-31,-7
333,-25,-6,21,-26,-5,121,-31,-7
334,-26,-6,37,-26,-4,180,-32,-6
335,-26,-4,38,-25,-4,197,-31,-5
336,-27,-3,26,-25,-3,176,-31,-5
337,-27,-1,13,-24,-2,143,-31,-4
338,-28,1,9,-23,-2,126,-31,-3
339,-28,2,13,-22,-3,132,-32,-3
340,-28,2,21,-23,-4,150,-33,-4
341,-29,1,27,-24,-6,165,-35,-5
342,-30,-2,31,-25,-8,172,-35,-7
343,-29,-4,34,-26,-9,176,-35,-10
344,-29,-6,36,-26,-10,180,-34,-11
345,-28,-7,35,-25,-9,180,-32,-12
346,-26,-8,29,-23,-9,169,-30,-11
347,-25,-8,17,-21,-7,146,-27,-10
348,-24,-7,3,-19,-6,115,-25,-9
349,-22,-7,-9,-17,-4,87,-24,-8
350,-21,-6,-16,-16,-4,70,-22,-7
351,-20,-6,-20,-15,-3,63,-21,-7
352,-20,-5,-22,-14,-3,63,-19,-7
353,-19,-4,-23,-12,-4,67,-18,-7
354,-19,-2,-22,-11,-4,79,-17,-7
355,-18,-1,-18,-11,-4,96,-17,-6
356,-17,0,-13,-11,-4,116,-17,-5
357,-17,1,-7,-12,-4,135,-17,-4
358,-16,1,-5,-12,-3,145,-17,-3
359,-15,0,-9,-12,-3,141,-17,-2
360,-15,0,-17,-11,-3,122,-17,-2
361,-15,0,-24,-10,-4,101,-17,-3
362,-15,0,-27,-10,-4,89,-16,-4
363,-15,-1,-23,-10,-5,94,-16,-5
364,-15,-3,-13,-10,-6,115,-16,-5
365,-16,-3,-3,-11,-6,140,-17,-6
366,-16,-4,2,-11,-5,151,-17,-6
367,-16,-3,-4,-11,-5,139,-18,-6
368,-16,-3,-18,-11,-4,101,-18,-6
369,-16,-2,-36,-11,-3,48,-18,-5
370,-15,-2,-51,-10,-2,-1,-17,-4
371,-14,-3,-58,-10,-2,-30,-16,-4
372,-13,-4,-57,-9,-1,-36,-14,-5
373,-12,-4,-52,-9,-2,-27,-13,-5
374,-12,-5,-46,-9,-2,-14,-12,-6
375,-10,-5,-41,-7,-3,-3,-10,-5
376,-6,-4,-38,-4,-4,6,-6,-4
377,-1,-2,-35,0,-4,13,1,-4
378,5,1,-33,5,-4,20,8,-3
379,11,3,-30,11,-3,26,15,-3
380,16,5,-28,16,-2,29,21,-2
381,19,6,-27,21,-1,28,26,0
382,22,8,-26,26,0,25,31,2
383,25,10,-27,31,2,20,36,4
384,29,11,-29,36,3,14,40,6
385,33,12,-28,40,4,13,45,7
386,35,12,-26,43,4,18,48,7
387,37,12,-22,45,5,26,50,7
388,39,12,-21,46,5,32,51,7
389,40,11,-22,47,6,35,51,6
390,42,11,-25,47,6,34,52,6
391,43,11,-30,48,7,32,53,6
392,44,10,-36,48,8,27,53,7
393,46,10,-42,48,9,21,53,8
394,47,9,-47,49,10,17,52,9
395,49,9,-48,50,10,18,52,10
396,50,9,-46,50,10,22,50,11
397,50,10,-45,49,10,24,48,12
398,49,11,-45,48,10,22,46,13
399,48,12,-46,47,10,17,44,14
400,46,13,-45,46,10,12,41,14
401,44,13,-44,44,9,11,39,14
402,41,13,-41,42,9,14,36,14
403,38,12,-37,39,8,23,33,13
404,34,12,-32,36,7,37,30,11
405,31,11,-24,32,6,50,27,10
406,28,11,-14,29,6,59,24,9
407,27,11,-2,27,5,65,22,8
408,27,11,9,26,5,67,21,9
409,27,11,16,25,5,64,20,10
410,26,12,19,25,6,63,18,11
411,24,12,19,23,5,67,16,11
412,22,11,16,21,4,73,12,10
413,18,9,13,17,3,80,8,9
414,14,7,11,14,2,85,4,7
415,10,5,10,11,-1,86,0,5
416,7,3,8,9,-2,84,-2,4
417,5,3,6,8,-3,80,-3,3
418,4,3,2,8,-4,75,-4,2
419,2,3,-5,7,-4,69,-4,2
420,2,4,-16,6,-4,62,-5,3
421,2,4,-30,6,-4,51,-5,4
422,2,4,-42,6,-4,42,-6,4
423,1,4,-49,5,-3,37,-7,5
424,-1,4,-50,4,-4,42,-8,4
425,-3,3,-44,3,-4,56,-10,3
426,-4,2,-36,0,-4,74,-12,2
427,-6,0,-30,-3,-5,85,-14,0
428,-6,-2,-29,-5,-5,84,-14,-1
429,-6,-3,-34,-6,-5,70,-14,-1
430,-5,-3,-43,-6,-5,47,-14,-1
431,-5,-4,-54,-6,-5,23,-14,-1
432,-6,-4,-61,-7,-6,11,-14,-2
433,-6,-4,-62,-8,-7,12,-14,-3
434,-7,-5,-59,-9,-8,23,-15,-4
435,-7,-6,-54,-10,-9,35,-15,-5
436,-6,-7,-50,-10,-9,46,-16,-5
437,-6,-9,-45,-10,-9,57,-16,-5
438,-6,-10,-40,-10,-10,69,-16,-6
439,-6,-11,-37,-10,-10,78,-15,-6
440,-6,-11,-36,-9,-10,85,-13,-7
441,-7,-10,-35,-9,-10,88,-13,-7
442,-7,-10,-37,-9,-10,83,-12,-6
443,-8,-10,-42,-8,-10,70,-12,-5
444,-8,-10,-49,-7,-9,51,-12,-4
445,-8,-10,-53,-6,-8,35,-12,-4
446,-9,-10,-55,-6,-7,25,-12,-3
447,-9,-10,-54,-7,-6,21,-13,-2
448,-10,-9,-51,-8,-5,26,-14,-2
449,-11,-9,-46,-9,-5,38,-15,-3
450,-12,-8,-41,-10,-6,51,-16,-4
451,-12,-8,-40,-12,-6,59,-17,-5
452,-12,-6,-42,-12,-6,60,-17,-5
453,-11,-5,-46,-12,-6,58,-16,-5
454,-9,-4,-50,-11,-5,55,-15,-4
455,-7,-4,-54,-10,-5,51,-14,-3
456,-6,-4,-56,-10,-5,46,-14,-3
457,-5,-5,-57,-10,-5,41,-15,-2
458,-6,-6,-57,-11,-6,38,-17,-2
459,-8,-6,-56,-12,-6,33,-19,-2
460,-9,-6,-55,-13,-5,26,-20,-2
461,-9,-6,-55,-14,-4,15,-20,-1
462,-7,-6,-55,-13,-3,3,-18,0
463,-6,-6,-56,-13,-3,-6,-17,0
464,-6,-7,-57,-12,-3,-9,-16,0
465,-6,-8,-59,-13,-3,-7,-16,0
466,-7,-8,-61,-13,-3,-1,-15,-1
467,-8,-8,-62,-13,-4,8,-14,-1
468,-9,-8,-63,-13,-4,15,-14,-2
469,-11,-8,-62,-13,-5,19,-15,-2
470,-12,-8,-59,-13,-5,26,-15,-3
471,-13,-8,-53,-13,-6,38,-16,-4
472,-13,-8,-46,-12,-7,54,-16,-4
473,-14,-8,-40,-11,-7,69,-16,-4
474,-14,-7,-37,-9,-7,81,-16,-4
475,-15,-7,-37,-9,-7,86,-17,-4
476,-15,-7,-40,-9,-7,86,-18,-3
477,-15,-7,-44,-9,-7,80,-18,-3
478,-15,-6,-48,-9,-6,69,-18,-3
479,-14,-6,-53,-9,-4,56,-17,-2
480,-13,-6,-59,-9,-4,43,-15,-1
481,-11,-6,-63,-8,-3,30,-13,-1
482,-9,-7,-64,-7,-3,22,-12,0
483,-6,-7,-59,-6,-4,22,-10,0
484,-5,-8,-50,-5,-5,31,-8,0
485,-3,-8,-40,-3,-6,46,-5,0
486,-2,-8,-30,-2,-6,63,-4,0
487,-2,-7,-22,-1,-6,77,-3,0
488,-2,-6,-20,0,-5,86,-2,0
489,-1,-5,-23,1,-4,86,-1,-1
490,-1,-5,-29,1,-3,79,0,-1
491,-1,-5,-37,1,-3,67,0,-2
492,-1,-6,-46,0,-3,50,-1,-2
493,0,-7,-57,-1,-2,27,-1,-3
494,0,-7,-70,-2,-2,1,-2,-3
495,0,-7,-81,-3,-2,-25,-3,-2
496,0,-6,-91,-3,-1,-44,-5,-1
497,0,-6,-98,-3,-1,-54,-6,1
498,-1,-6,-101,-3,1,-54,-6,2
499,-1,-5,-102,-2,1,-49,-6,3
500,-1,-4,-106,-2,2,-47,-6,3
501,-2,-3,-111,-2,2,-52,-5,3
502,-4,-1,-116,-2,2,-64,-5,2
503,-5,0,-121,-3,2,-80,-6,2
504,-6,0,-123,-3,1,-94,-7,2
505,-6,0,-124,-3,2,-99,-7,2
506,-7,-1,-124,-3,2,-98,-8,2
507,-7,-1,-125,-3,2,-97,-9,3
508,-7,-2,-127,-3,2,-100,-11,3
509,-8,-2,-128,-3,2,-101,-12,3
510,-8,-2,-126,-3,1,-99,-13,3
511,-9,-1,-122,-4,1,-93,-13,2
512,-9,-1,-117,-5,0,-86,-13,1
513,-9,-1,-110,-5,-2,-77,-12,0
514,-8,-2,-104,-5,-3,-66,-11,-2
515,-7,-2,-97,-4,-4,-53,-9,-3
516,-6,-3,-92,-3,-5,-42,-7,-4
517,-4,-4,-88,-2,-5,-37,-5,-5
518,-3,-3,-85,0,-5,-36,-2,-5
519,1,-1,-82,4,-4,-38,2,-3
520,6,0,-80,8,-2,-40,8,-1
521,11,2,-78,13,-1,-41,15,1
522,17,3,-79,19,0,-44,22,3
523,23,3,-81,25,1,-49,28,4
524,28,4,-84,30,3,-58,34,5
525,31,4,-87,35,4,-71,39,5
526,35,5,-92,39,5,-88,43,6
527,37,6,-96,43,6,-100,48,7
528,39,7,-97,47,6,-104,51,7
529,40,8,-95,49,6,-101,54,8
530,39,9,-93,50,6,-97,54,8
531,38,10,-94,50,6,-96,53,8
532,37,10,-96,50,7,-94,52,9
533,37,9,-96,49,7,-86,51,9
534,37,8,-92,47,6,-68,50,9
535,37,6,-84,45,5,-42,48,8
536,36,5,-74,43,4,-13,47,7
537,35,4,-65,41,3,12,45,6
538,32,3,-58,39,2,26,42,5
539,30,2,-58,37,2,20,38,4
540,28,1,-65,36,2,-5,36,4
541,25,2,-75,35,3,-39,34,4
542,23,2,-85,34,4,-72,32,5
543,21,4,-94,33,4,-100,31,5
544,19,5,-100,32,4,-120,29,5
545,17,5,-101,30,4,-127,27,4
546,14,6,-96,27,3,-119,24,3
547,9,6,-89,23,2,-100,21,3
548,6,6,-83,20,2,-82,18,2
549,3,7,-78,19,2,-67,17,3
550,3,8,-70,18,4,-53,16,4
551,3,8,-53,17,5,-34,17,5
552,5,8,-28,17,5,-9,17,6
553,5,7,1,17,5,21,17,6
554,4,6,27,15,4,50,16,6
555,3,3,47,13,3,76,13,4
556,0,1,55,10,2,90,9,3
557,-2,-1,53,7,1,90,5,1
558,-4,-2,44,4,0,74,2,1
559,-6,-2,30,1,0,41,-2,0
560,-8,-2,12,-3,0,-6,-5,-1
561,-10,-2,-7,-6,1,-62,-9,-2
562,-12,-3,-27,-10,2,-118,-13,-3
563,-14,-3,-43,-13,2,-163,-15,-4
564,-15,-3,-53,-16,2,-186,-17,-4
565,-16,-4,-55,-18,1,-186,-17,-4
566,-16,-4,-52,-19,1,-166,-17,-4
567,-15,-3,-45,-19,0,-131,-16,-3
568,-16,-3,-35,-19,0,-85,-16,-2
569,-16,-2,-23,-19,0,-35,-17,-1
570,-17,-2,-15,-20,-1,10,-18,-1
571,-18,-2,-12,-21,-2,39,-20,-1
572,-19,-1,-17,-22,-3,49,-21,-2
573,-20,0,-28,-23,-4,39,-22,-2
574,-20,1,-46,-23,-4,10,-24,-2
575,-22,2,-67,-23,-4,-36,-25,-2
576,-23,2,-90,-23,-4,-91,-26,-2
577,-26,1,-112,-24,-5,-145,-28,-3
578,-28,0,-130,-26,-5,-190,-30,-5
579,-30,-2,-144,-27,-6,-222,-32,-6
580,-31,-3,-152,-28,-6,-240,-33,-7
581,-31,-4,-156,-29,-6,-246,-33,-8
582,-31,-4,-155,-30,-5,-242,-33,-8
583,-31,-4,-151,-30,-4,-226,-32,-8
584,-31,-3,-144,-30,-4,-200,-32,-7
585,-31,-3,-135,-30,-4,-167,-31,-7
586,-31,-2,-128,-30,-5,-135,-31,-7
587,-31,-3,-124,-29,-6,-111,-32,-8
588,-31,-3,-124,-29,-7,-99,-32,-8
589,-30,-3,-125,-29,-8,-96,-32,-7
590,-29,-4,-124,-28,-7,-91,-31,-7
591,-28,-4,-119,-28,-7,-78,-30,-6
592,-27,-4,-113,-28,-7,-58,-30,-5
593,-26,-5,-107,-28,-7,-36,-29,-6
594,-26,-5,-103,-28,-8,-18,-29,-6
595,-25,-5,-102,-28,-8,-10,-28,-7
596,-25,-5,-104,-28,-9,-8,-28,-7
597,-26,-4,-106,-27,-9,-11,-28,-8
598,-26,-3,-107,-27,-8,-14,-28,-7
599,-25,-3,-108,-26,-6,-18,-28,-7
600,-25,-3,-107,-26,-5,-20,-27,-7
601,-25,-3,-105,-25,-5,-17,-25,-7
602,-25,-2,-103,-24,-5,-13,-24,-7
603,-24,-2,-105,-23,-6,-16,-23,-7
604,-23,-1,-111,-22,-6,-31,-22,-6
605,-22,1,-118,-21,-6,-57,-21,-6
606,-21,2,-125,-19,-5,-86,-20,-6
607,-20,3,-129,-18,-4,-110,-19,-5
608,-19,4,-128,-17,-4,-122,-19,-5
609,-18,4,-125,-17,-4,-122,-18,-4
610,-17,3,-120,-16,-3,-113,-18,-4
611,-15,2,-115,-15,-3,-101,-18,-3
612,-14,1,-112,-15,-4,-90,-17,-3
613,-14,1,-109,-14,-4,-81,-17,-2
614,-13,1,-106,-14,-4,-73,-16,-2
615,-13,2,-102,-13,-5,-64,-15,-1
616,-13,2,-98,-13,-5,-55,-14,0
617,-12,1,-93,-14,-4,-47,-14,0
618,-13,1,-88,-16,-4,-39,-15,0
619,-14,-1,-84,-17,-4,-31,-16,-1
620,-14,-2,-80,-18,-5,-25,-17,-1
621,-13,-2,-78,-18,-5,-20,-16,-1
622,-10,-1,-77,-16,-4,-19,-14,0
623,-8,0,-76,-13,-3,-21,-11,1
624,-5,2,-77,-10,-2,-24,-8,2
625,-3,4,-77,-7,-1,-26,-6,3
626,-1,6,-77,-5,0,-28,-3,4
627,1,7,-77,-2,1,-30,-1,5
628,4,9,-78,2,1,-35,2,5
629,8,10,-81,6,1,-43,7,6
630,12,12,-83,10,2,-50,11,8
631,14,13,-84,13,3,-54,14,8
632,17,14,-83,15,4,-55,16,9
633,20,14,-81,18,4,-50,19,9
634,22,14,-76,20,4,-40,21,9
635,25,13,-71,22,3,-27,22,10
636,27,13,-67,24,3,-13,24,10
637,29,13,-63,27,4,-1,27,11
638,32,13,-58,29,4,10,30,12
639,35,14,-53,32,5,18,34,12
640,38,14,-48,34,6,22,36,12
641,40,15,-43,36,6,22,39,12
642,42,16,-39,37,6,20,41,12
643,42,16,-35,39,6,20,42,12
644,43,17,-32,40,6,20,42,12
645,43,17,-30,41,6,20,42,12
646,44,17,-29,42,6,21,43,12
647,45,17,-28,42,6,20,42,12
648,44,16,-28,42,6,16,41,12
649,43,15,-29,41,7,8,40,13
650,42,14,-31,40,7,-3,38,14
651,40,13,-32,38,8,-14,36,15
652,38,12,-33,38,9,-24,35,15
653,37,11,-35,38,9,-30,34,15
654,36,10,-37,38,9,-36,34,13
655,35,9,-38,38,7,-40,33,12
656,33,8,-39,38,6,-46,31,10
657,32,6,-39,37,4,-50,29,8
658,30,4,-39,34,3,-51,26,5
659,28,3,-39,31,2,-51,24,4
660,27,2,-40,28,2,-50,23,2
661,27,1,-41,26,2,-49,22,1
662,26,1,-42,23,3,-49,21,1
663,25,1,-44,21,4,-52,20,1
664,24,1,-46,19,4,-58,17,1
665,22,1,-50,17,4,-67,15,1
666,20,1,-56,16,4,-77,13,1
667,18,0,-64,14,3,-88,11,1
668,17,0,-69,12,3,-96,10,2
669,16,0,-72,10,3,-97,9,3
670,15,0,-70,9,3,-93,7,5
671,13,0,-66,7,3,-85,6,6
672,11,-1,-60,6,4,-76,3,7
673,9,-1,-54,5,4,-67,0,7
674,6,-1,-49,3,5,-61,-3,7
675,2,-1,-47,1,4,-58,-7,6
676,-1,-2,-48,-1,3,-60,-11,6
677,-3,-3,-51,-4,2,-67,-13,4
678,-5,-5,-55,-6,1,-77,-16,3
679,-7,-6,-58,-8,-1,-86,-18,0
680,-10,-8,-60,-11,-2,-92,-20,-3
681,-12,-10,-60,-13,-4,-92,-21,-6
682,-14,-11,-57,-14,-6,-87,-23,-7
683,-16,-11,-56,-14,-8,-83,-24,-8
684,-17,-11,-56,-14,-8,-82,-25,-7
685,-17,-10,-57,-14,-8,-85,-25,-6
686,-16,-9,-60,-13,-7,-89,-25,-5
687,-15,-9,-63,-13,-6,-90,-25,-3
688,-14,-9,-64,-13,-5,-87,-25,-3
689,-13,-9,-63,-13,-5,-81,-25,-3
690,-13,-10,-63,-14,-4,-75,-25,-3
691,-14,-10,-62,-16,-4,-72,-25,-5
692,-16,-11,-62,-17,-4,-72,-25,-6
693,-17,-12,-61,-19,-4,-72,-25,-8
694,-19,-13,-61,-20,-4,-72,-25,-9
695,-20,-14,-61,-21,-5,-71,-24,-10
696,-20,-15,-62,-21,-6,-71,-23,-11
697,-20,-16,-64,-21,-7,-72,-24,-12
698,-20,-17,-66,-21,-7,-74,-24,-12
699,-20,-17,-68,-21,-7,-75,-24,-12
700,-20,-17,-68,-21,-7,-75,-25,-12
701,-21,-17,-67,-20,-7,-73,-24,-12
702,-21,-16,-65,-20,-6,-71,-24,-11
703,-21,-14,-63,-20,-6,-68,-23,-10
704,-22,-13,-61,-20,-7,-66,-23,-10
705,-22,-12,-60,-19,-7,-64,-22,-9
706,-21,-11,-61,-18,-6,-63,-22,-9
707,-20,-10,-62,-17,-6,-64,-21,-9
708,-19,-10,-65,-16,-5,-66,-21,-9
709,-19,-10,-68,-15,-4,-68,-21,-9
710,-18,-10,-70,-14,-4,-68,-21,-9
711,-18,-10,-72,-14,-4,-66,-21,-9
712,-16,-10,-73,-13,-4,-63,-20,-9
713,-14,-10,-76,-12,-3,-62,-19,-8
714,-12,-11,-78,-11,-3,-63,-18,-8
715,-12,-11,-81,-10,-3,-62,-18,-8
716,-12,-11,-81,-10,-3,-59,-18,-9
717,-13,-11,-80,-11,-3,-54,-18,-10
718,-15,-11,-79,-12,-3,-51,-19,-10
719,-16,-10,-79,-14,-3,-51,-20,-11
720,-17,-10,-80,-16,-4,-50,-21,-12
721,-18,-10,-79,-17,-4,-48,-22,-13
722,-18,-11,-77,-18,-4,-44,-22,-14
723,-18,-11,-75,-18,-4,-39,-22,-15
724,-18,-12,-72,-18,-5,-34,-21,-15
725,-17,-12,-70,-18,-5,-30,-20,-15
726,-16,-13,-68,-18,-6,-26,-19,-15
727,-15,-13,-66,-17,-6,-22,-19,-14
728,-14,-14,-64,-17,-6,-19,-19,-14
729,-13,-14,-64,-16,-6,-18,-19,-13
730,-13,-13,-65,-16,-6,-20,-19,-11
731,-12,-12,-66,-15,-7,-23,-18,-10
732,-11,-11,-67,-14,-6,-24,-18,-9
733,-11,-10,-67,-14,-6,-23,-18,-9
734,-11,-8,-65,-13,-5,-20,-17,-8
735,-11,-7,-62,-13,-5,-16,-16,-8
736,-12,-7,-61,-12,-4,-14,-15,-7
737,-12,-6,-60,-11,-4,-12,-15,-7
738,-12,-5,-59,-10,-4,-9,-15,-6
739,-13,-4,-58,-10,-4,-4,-14,-6
740,-13,-3,-56,-10,-4,0,-15,-6
741,-13,-3,-55,-12,-4,2,-15,-6
742,-14,-3,-55,-13,-4,3,-16,-5
743,-14,-3,-55,-14,-5,4,-16,-5
744,-15,-4,-54,-16,-5,7,-17,-6
745,-15,-5,-53,-17,-5,12,-17,-6
746,-15,-6,-52,-17,-4,16,-18,-6
747,-14,-6,-51,-17,-4,17,-18,-6
748,-13,-6,-52,-16,-3,16,-18,-6
749,-12,-7,-52,-16,-2,14,-18,-5
750,-11,-6,-52,-14,-1,13,-18,-4
751,-10,-6,-53,-14,0,12,-18,-3
752,-9,-7,-53,-13,1,13,-17,-3
753,-9,-7,-52,-13,1,14,-17,-4
754,-8,-8,-51,-13,1,15,-16,-4
755,-7,-9,-51,-12,0,15,-16,-5
756,-7,-9,-52,-12,-1,13,-17,-5
757,-7,-9,-52,-13,-1,12,-18,-5
758,-7,-8,-53,-14,0,10,-19,-5
759,-6,-7,-54,-13,1,8,-18,-4
760,-5,-7,-56,-12,1,7,-16,-4
761,-4,-7,-59,-10,1,5,-13,-3
762,-3,-6,-62,-7,1,4,-10,-3
763,-3,-6,-64,-5,0,5,-8,-2
764,-5,-6,-65,-5,-1,5,-8,-2
765,-7,-6,-66,-6,-1,5,-10,-2
766,-10,-7,-66,-7,-1,3,-12,-2
767,-11,-7,-66,-8,-1,-2,-12,-2
768,-12,-7,-67,-9,0,-6,-12,-3
769,-12,-7,-68,-9,1,-9,-12,-3
770,-12,-7,-68,-10,1,-11,-12,-3
771,-13,-6,-68,-11,1,-10,-13,-3
772,-13,-6,-68,-11,1,-9,-14,-3
773,-13,-5,-67,-12,1,-8,-15,-2
774,-13,-4,-67,-13,2,-6,-16,-2
775,-12,-2,-65,-13,3,-4,-16,-1
776,-12,-2,-64,-13,3,0,-16,-1
777,-11,-1,-62,-13,4,3,-16,0
778,-11,-1,-61,-12,4,5,-16,0
779,-10,-1,-58,-12,5,6,-15,1
780,-10,-2,-57,-12,5,6,-14,1
781,-9,-2,-55,-12,5,5,-13,1
782,-9,-3,-54,-12,6,4,-13,2
783,-9,-4,-54,-11,6,4,-12,1
784,-9,-5,-54,-10,5,5,-11,1
785,-8,-6,-53,-9,4,8,-10,-1
786,-7,-7,-53,-8,4,12,-10,-2
787,-6,-8,-52,-6,3,15,-9,-4
788,-4,-9,-52,-5,2,15,-9,-5
789,-3,-8,-53,-5,2,14,-8,-5
790,-2,-8,-54,-4,2,13,-8,-5
791,-2,-7,-54,-4,2,16,-6,-5
792,-2,-6,-52,-4,1,20,-5,-5
793,-2,-5,-51,-4,1,25,-4,-5
794,-2,-4,-50,-4,0,27,-3,-4
795,-3,-3,-49,-4,0,27,-2,-3
796,-3,-1,-48,-3,1,27,-1,-2
797,-4,0,-47,-3,2,29,0,-1
798,-4,1,-45,-3,3,34,0,0
799,-3,2,-42,-3,4,43,0,0
800,-3,3,-38,-3,4,53,0,0
801,-2,3,-36,-3,5,61,0,0
802,-1,2,-35,-3,5,62,1,0
803,1,2,-36,-3,4,59,2,0
804,1,2,-37,-2,4,54,2,1
805,2,2,-38,-2,4,50,2,2
806,2,3,-39,-1,4,47,2,2
807,2,4,-39,-1,5,45,1,3
808,1,4,-39,-1,5,43,-1,3
809,1,4,-39,-1,5,40,-1,2
810,1,4,-40,-2,5,36,-2,2
811,2,3,-41,-2,5,32,-2,1
812,2,2,-40,-2,5,29,-3,0
813,4,0,-40,-1,5,25,-3,-1
814,5,-2,-40,0,5,19,-4,-2
815,6,-3,-40,1,6,11,-3,-2
816,7,-3,-40,2,7,4,-3,-1
817,7,-3,-40,2,7,1,-2,0
818,7,-3,-39,2,8,0,-2,1
819,6,-2,-37,2,9,1,-1,2
820,5,-1,-37,1,9,2,-1,3
821,4,-1,-36,0,9,2,-1,4
822,3,0,-36,0,8,2,0,3
823,3,1,-35,0,7,4,1,3
824,3,1,-34,0,6,6,2,2
825,3,0,-33,0,5,9,2,2
826,3,-1,-33,0,4,10,1,1
827,2,-1,-33,0,5,10,1,1
828,2,0,-34,1,5,7,-1,2
829,2,1,-36,1,5,2,-1,3
830,2,2,-37,1,6,-4,-1,4
831,2,3,-38,0,6,-10,-1,4
832,2,3,-39,0,7,-13,-1,5
833,3,2,-39,0,6,-18,-1,5
834,3,1,-39,1,6,-23,0,4
835,4,0,-41,1,6,-30,1,3
836,5,-1,-41,2,5,-35,3,2
837,6,-2,-42,2,5,-38,4,2
838,6,-3,-42,2,4,-41,4,1
839,6,-4,-43,1,4,-45,3,1
840,5,-4,-46,0,3,-51,1,1
841,4,-3,-49,1,2,-60,1,1
842,5,-2,-52,2,2,-68,2,2
843,6,0,-53,4,2,-69,4,3
844,8,3,-50,7,2,-63,7,5
845,10,6,-43,11,3,-48,11,6
846,12,9,-36,14,4,-31,14,8
847,14,11,-30,17,5,-17,17,9
848,16,12,-26,20,7,-9,20,10
849,17,13,-26,23,7,-6,23,11
850,19,13,-27,26,7,-7,25,10
851,19,12,-27,27,7,-7,27,10
852,19,11,-26,28,7,-4,28,9
853,19,10,-24,28,8,2,28,8
854,19,9,-21,28,8,9,28,8
855,19,8,-18,27,9,15,28,8
856,19,7,-16,26,9,19,26,8
857,17,6,-16,25,9,19,24,8
858,16,5,-17,23,9,17,21,7
859,14,5,-18,22,8,15,19,7
860,13,4,-19,21,8,13,17,7
861,13,2,-21,20,7,11,16,7
862,13,1,-22,19,7,8,16,7
863,14,-1,-23,18,7,8,16,6
864,14,-1,-23,17,6,8,15,6
865,14,-2,-23,16,6,10,16,5
866,13,-1,-23,14,5,13,16,4
867,12,-1,-22,13,5,17,16,3
868,11,-1,-20,13,4,20,15,2
869,11,-2,-19,12,3,20,14,2
870,10,-4,-18,12,2,19,13,1
871,10,-7,-17,11,0,18,12,0
872,9,-10,-16,11,-1,18,12,-1
873,8,-12,-15,11,-2,20,10,-2
874,7,-14,-14,9,-2,23,8,-3
875,5,-15,-13,8,-3,24,6,-4
876,4,-15,-14,6,-3,23,4,-5
877,2,-15,-14,6,-4,21,2,-6
878,1,-15,-14,5,-5,21,1,-6
879,0,-15,-14,5,-6,20,0,-6
880,0,-14,-15,5,-6,19,-1,-6
881,1,-12,-16,6,-5,16,-1,-4
882,2,-11,-18,6,-4,12,-1,-2
883,2,-10,-20,6,-3,9,-1,0
884,3,-9,-20,7,-2,9,-1,2
885,4,-8,-19,7,-1,12,0,3
886,4,-8,-17,8,0,15,0,4
887,4,-7,-16,8,1,17,1,5
888,4,-7,-14,8,1,18,1,5
889,4,-6,-13,7,1,18,1,5
890,3,-6,-12,6,1,18,0,4
891,4,-6,-11,6,1,19,-1,3
892,4,-6,-11,5,0,19,-1,3
893,5,-6,-11,5,0,19,-2,3
894,5,-5,-12,5,-1,19,-2,3
895,5,-3,-13,6,-2,19,-1,4
896,5,-1,-16,6,-3,18,-1,5
897,5,-1,-18,6,-4,16,0,5
898,5,-1,-20,6,-4,12,1,5
899,4,-2,-20,5,-5,10,1,4
900,4,-3,-19,4,-6,9,1,3
901,3,-4,-16,3,-6,10,1,2
902,3,-5,-13,3,-6,12,1,1
903,2,-4,-12,3,-5,13,1,2
904,1,-2,-12,3,-5,14,2,2
905,0,-2,-12,3,-5,17,3,2
906,1,-1,-11,3,-5,20,3,2
907,1,-1,-11,3,-5,23,4,2
908,2,-1,-12,4,-5,24,4,2
909,3,-1,-13,5,-4,21,5,2
910,3,-1,-13,6,-4,18,5,2
911,4,-1,-13,7,-4,16,5,2
912,4,-2,-14,7,-4,15,6,2
913,5,-2,-15,7,-5,14,6,1
914,5,-2,-16,6,-5,13,6,0
915,6,-2,-17,5,-5,10,5,0
916,5,-1,-18,4,-5,6,5,0
917,5,-1,-17,4,-5,3,4,1
918,5,-1,-14,3,-5,3,4,1
919,5,-1,-11,2,-6,7,4,1
920,5,-1,-10,2,-6,10,4,1
921,5,0,-10,1,-6,12,4,1
922,5,1,-10,1,-6,15,5,1
923,5,2,-9,1,-6,18,4,2
924,4,3,-6,1,-6,21,4,2
925,3,4,-4,0,-5,22,4,2
926,3,5,-2,0,-5,21,3,2
927,2,5,-1,-1,-4,20,3,2
928,2,5,-1,-1,-4,17,3,2
929,3,4,2,-1,-3,14,2,2
930,3,3,5,-1,-3,12,2,2
931,3,2,8,-1,-3,11,2,1
932,3,1,12,-1,-3,12,2,1
933,3,2,15,-1,-3,14,2,1
934,2,2,17,-1,-3,17,2,1
935,1,2,18,-1,-3,21,1,1
936,0,2,20,-1,-4,22,0,1
937,-1,3,22,0,-3,20,-1,1
938,-2,4,25,1,-3,16,0,1
939,-1,5,28,3,-2,12,1,1
940,0,6,30,5,-2,11,2,2
941,2,7,33,7,-2,13,4,3
942,3,7,34,7,-2,16,5,3
943,3,6,35,7,-2,18,4,4
944,2,5,36,6,-1,20,3,4
945,1,4,36,4,-1,21,2,3
946,1,2,37,3,-1,24,1,3
947,1,2,38,3,0,27,0,2
948,1,2,39,2,1,32,-1,2
949,1,2,41,1,1,38,-2,3
950,0,3,42,0,2,42,-2,3
951,-1,3,42,-1,2,42,-2,4
952,-1,3,41,-1,2,37,-3,4
953,-2,3,38,-2,2,30,-3,4
954,-3,4,34,-2,1,22,-3,4
955,-3,4,30,-3,1,15,-4,4
956,-4,5,28,-3,1,10,-4,4
957,-5,5,26,-3,1,8,-4,3
958,-5,5,25,-3,1,7,-4,3
959,-5,5,25,-4,1,7,-4,2
960,-6,5,25,-4,1,8,-4,2
961,-5,4,25,-4,1,8,-4,1
962,-5,3,23,-4,1,6,-4,0
963,-4,2,21,-4,1,1,-3,-1
964,-4,1,19,-4,1,-6,-3,-2
965,-4,-1,18,-4,1,-12,-3,-3
966,-3,-1,18,-3,1,-17,-3,-4
967,-3,-2,18,-2,1,-19,-3,-4
968,-2,-3,18,-1,1,-18,-2,-4
969,-1,-4,19,0,1,-13,-1,-3
970,0,-4,22,1,0,-5,-1,-3
971,-1,-3,25,0,0,2,-1,-3
972,-1,-1,28,-1,-1,7,-2,-2
973,-2,1,31,-2,-1,11,-3,-2
974,-2,3,33,-2,-1,16,-3,-2
975,-2,4,35,-2,-1,20,-3,-1
976,-2,5,36,-2,-1,24,-3,-1
977,-3,6,37,-2,-1,28,-3,-1
978,-3,5,38,-3,-1,30,-4,0
979,-3,5,39,-4,0,29,-4,0
980,-3,4,39,-4,0,28,-5,0
981,-3,3,39,-4,1,27,-5,0
982,-2,3,39,-3,1,29,-4,1
983,-1,3,40,-2,2,31,-3,1
984,1,2,39,-2,2,29,-3,2
985,1,1,36,-2,1,24,-4,1
986,1,0,32,-2,0,19,-5,1
987,-1,0,28,-3,0,13,-7,1
988,-1,-1,23,-4,0,8,-8,0
989,-2,-1,19,-4,1,4,-8,1
990,-1,-1,15,-3,1,0,-8,1
991,-1,-1,12,-2,2,-3,-7,2
992,0,-1,11,-1,2,-3,-5,2
993,0,0,11,1,2,-2,-2,2
994,0,0,13,2,2,1,-1,2
995,0,1,16,2,2,6,-1,1
996,-2,0,19,1,1,11,-1,1
997,-3,0,21,0,1,15,-2,0
998,-4,0,22,-1,-1,17,-2,0
999,-5,0,21,0,-1,16,-2,0
1000,-3,1,19,1,-1,12,0,0
1001,-2,1,18,1,-1,6,2,1
1002,0,2,16,2,-1,1,5,1
1003,1,2,16,2,-1,-4,7,1
1004,0,2,17,2,-1,-9,8,1
1005,-1,2,19,2,0,-14,7,1
1006,-1,2,20,2,0,-20,7,1
1007,-2,2,20,3,1,-25,6,1
1008,-2,2,18,3,1,-29,5,2
1009,-2,1,16,3,0,-30,5,1
1010,-2,0,14,3,0,-30,4,0
1011,-1,-1,14,2,-1,-27,4,-1
1012,0,-1,16,2,-1,-25,3,-2
1013,0,-2,20,1,-2,-25,3,-3
1014,0,-3,22,0,-2,-27,2,-4
1015,-1,-3,22,-1,-2,-34,0,-5
1016,-2,-2,18,-1,-1,-43,-1,-5
1017,-3,-2,14,-2,0,-53,-2,-5
1018,-3,-1,10,-2,0,-63,-2,-5
1019,-2,0,4,-1,0,-71,-2,-5
1020,-2,0,-1,0,0,-78,-2,-5
1021,-2,0,-3,0,-1,-82,-2,-5
1022,-2,-1,-3,1,-2,-81,-2,-5
1023,-2,-1,-2,1,-2,-73,-2,-5
1024,-2,0,1,2,-1,-60,-1,-5
1025,0,1,4,2,0,-41,1,-4
1026,2,1,8,3,1,-25,2,-3
1027,4,2,9,4,3,-17,3,-3
1028,6,1,10,5,3,-17,4,-2
1029,7,0,11,6,4,-21,4,-2
1030,6,-2,12,6,3,-26,3,-2
1031,5,-3,13,6,2,-29,2,-1
1032,4,-2,15,6,2,-30,2,-1
1033,5,-1,18,7,1,-28,2,0
1034,6,-1,21,7,1,-24,3,0
1035,7,0,24,8,2,-20,4,1
1036,8,1,27,8,3,-13,5,1
1037,7,1,30,8,3,-6,6,0
1038,7,2,35,9,4,2,7,0
1039,7,2,42,9,4,8,7,0
1040,8,3,50,9,4,13,7,1
1041,9,4,57,9,4,19,7,1
1042,10,5,63,10,4,24,7,2
1043,11,5,68,10,4,29,7,2
1044,12,5,73,11,4,31,7,2
1045,11,5,77,12,4,32,7,3
1046,11,6,82,12,5,32,7,3
1047,10,6,88,12,5,32,7,4
1048,8,7,91,12,5,33,7,4
1049,8,7,90,12,5,34,6,5
1050,8,6,87,12,5,35,6,5
1051,8,6,84,12,5,37,5,5
1052,8,5,82,11,5,39,5,5
1053,7,5,81,9,5,40,4,5
1054,4,4,82,7,5,39,2,4
1055,-1,3,82,4,5,37,-2,3
1056,-4,2,80,1,4,31,-6,3
1057,-6,1,73,-2,3,24,-8,2
1058,-5,0,64,-2,2,16,-9,1
1059,-3,0,57,-2,2,10,-9,1
1060,-1,2,54,-1,3,6,-7,2
1061,2,3,55,1,4,6,-4,2
1062,2,4,60,2,5,9,-2,2
1063,1,4,65,1,5,13,-2,2
1064,0,4,67,0,5,17,-3,2
1065,-1,5,68,-1,5,21,-3,2
1066,0,5,67,-1,6,23,-3,3
1067,1,6,65,-1,6,23,-3,3
1068,3,6,63,0,6,23,-2,4
1069,4,7,60,1,6,23,-1,3
1070,4,6,58,2,6,22,0,3
1071,4,6,56,2,6,20,1,3
1072,3,5,55,2,6,17,1,3
1073,3,5,55,1,6,15,1,3
1074,2,5,58,0,5,12,1,3
1075,1,4,61,-1,5,9,1,2
1076,-1,5,63,-1,5,6,1,2
1077,-3,6,64,-2,5,5,1,3
1078,-4,6,66,-2,6,6,-1,4
1079,-6,6,68,-3,6,8,-2,4
1080,-8,5,71,-4,6,10,-4,4
1081,-10,4,74,-6,6,11,-7,4
1082,-11,4,77,-8,6,13,-9,5
1083,-12,4,79,-10,6,16,-10,4
1084,-11,4,79,-11,5,17,-10,4
1085,-10,5,76,-11,5,16,-9,4
1086,-7,4,73,-9,5,12,-6,4
1087,-5,4,70,-8,5,5,-3,3
1088,-3,3,67,-6,5,-4,-2,3
1089,-3,1,65,-6,5,-16,-2,3
1090,-4,0,64,-7,4,-28,-3,2
1091,-6,0,63,-8,3,-42,-5,2
1092,-5,-1,61,-8,3,-55,-5,2
1093,-3,-1,59,-6,3,-66,-4,1
1094,-1,-1,57,-3,2,-74,-2,1
1095,2,-1,55,-1,1,-77,0,1
1096,3,-2,54,0,0,-76,1,1
1097,3,-2,54,-1,-1,-73,1,1
1098,2,-2,55,-1,-1,-71,1,2
1099,1,-1,55,-1,0,-72,1,2
1100,1,-1,52,0,1,-75,2,2
1101,2,-1,47,1,2,-80,4,2
1102,3,-2,42,2,2,-86,5,1
1103,4,-3,38,2,1,-89,6,0
1104,5,-3,36,1,1,-87,7,-1
1105,5,-3,36,-1,1,-83,6,-1
1106,4,-3,38,-3,0,-76,5,-1
1107,3,-4,42,-4,-1,-69,3,-1
1108,2,-4,47,-6,-1,-61,3,-1
1109,1,-5,50,-6,-2,-55,3,-2
1110,0,-6,51,-7,-2,-52,2,-3
1111,-1,-7,51,-8,-2,-52,2,-4
1112,-2,-6,48,-8,-3,-54,2,-5
1113,-3,-5,43,-7,-3,-56,2,-5
1114,-3,-4,38,-6,-2,-58,2,-5
1115,-2,-3,35,-5,-2,-57,2,-4
1116,-1,-3,38,-5,-1,-56,3,-3
1117,-1,-4,43,-4,0,-54,3,-1
1118,-1,-4,49,-4,0,-54,2,-1
1119,-1,-5,52,-5,1,-55,1,0
1120,-1,-5,52,-6,1,-58,1,0
1121,-2,-5,49,-5,1,-60,0,0
1122,-3,-4,45,-5,1,-60,0,-1
1123,-3,-4,41,-5,1,-60,-1,-1
1124,-3,-4,41,-5,1,-57,-1,-1
1125,-4,-4,41,-6,1,-55,-1,-1
1126,-4,-4,42,-6,1,-53,-2,-1
1127,-4,-4,42,-6,1,-52,-2,0
1128,-3,-3,41,-6,1,-51,-2,1
1129,-2,-2,41,-6,1,-49,-1,2
1130,-1,-2,42,-5,2,-49,0,3
1131,0,-2,41,-4,2,-49,2,3
1132,1,-2,41,-4,2,-50,3,3
1133,2,-3,41,-4,2,-50,4,2
1134,3,-3,42,-3,2,-50,4,3
1135,3,-3,42,-2,1,-50,5,3
1136,4,-2,41,-2,1,-48,5,3
1137,3,0,41,-1,1,-45,6,3
1138,2,1,42,-1,1,-42,5,3
1139,1,1,43,0,3,-41,4,3
1140,0,1,44,1,4,-41,3,4
1141,-1,1,46,1,5,-41,3,4
1142,0,1,46,1,5,-41,3,4
1143,2,2,45,1,4,-40,4,4
1144,4,3,41,1,3,-39,6,4
1145,5,4,39,2,3,-36,7,5
1146,6,4,36,3,2,-32,9,5
1147,7,3,33,4,1,-27,10,5
1148,6,3,31,4,-1,-23,9,5
1149,5,3,30,3,-2,-17,8,5
1150,4,3,30,1,-3,-10,7,5
1151,5,3,29,0,-2,-7,7,5
1152,8,4,25,2,-1,-9,9,6
1153,11,5,22,5,1,-13,11,6
1154,12,5,18,7,1,-17,13,5
1155,13,5,16,8,0,-20,12,4
1156,11,4,17,7,-1,-21,11,4
1157,8,3,21,5,0,-19,9,4
1158,5,3,25,4,1,-17,8,5
1159,5,4,25,4,1,-16,7,5
1160,5,4,24,5,1,-16,8,5
1161,6,4,22,6,1,-16,9,5
1162,7,4,21,6,1,-16,9,5
1163,8,3,20,6,-1,-16,9,4
1164,8,1,20,5,-1,-17,9,3
1165,8,-1,21,5,-2,-17,8,2
1166,8,-2,22,5,-2,-18,7,2
1167,9,-3,23,5,-2,-18,7,2
1168,9,-3,25,5,-1,-17,6,3
1169,9,-2,26,5,-1,-13,6,3
1170,9,-2,26,5,0,-9,6,3
1171,8,-1,25,6,0,-7,7,3
1172,8,-1,24,6,0,-5,7,3
1173,8,-1,24,6,-1,-2,6,2
1174,8,-1,26,6,-1,1,6,2
1175,8,-2,29,5,-1,3,5,2
1176,6,-3,31,4,-2,5,4,2
1177,4,-3,31,3,-2,5,3,2
1178,3,-3,30,2,-2,4,2,2
1179,2,-2,27,2,-3,4,2,1
1180,0,-1,26,2,-3,5,1,1
1181,0,-1,27,3,-3,7,0,0
1182,0,-1,30,2,-4,10,-1,-1
1183,1,-3,34,0,-4,13,-3,-2
1184,0,-4,38,-3,-4,17,-4,-3
1185,0,-5,41,-4,-4,22,-6,-3
1186,0,-4,42,-5,-4,27,-6,-2
1187,1,-3,42,-5,-4,31,-7,-1
1188,1,-2,42,-3,-4,32,-7,-1
1189,0,-1,41,-2,-4,32,-7,-1
1190,1,-1,41,0,-4,31,-6,-1
1191,2,0,40,1,-4,29,-6,-1
1192,3,0,39,2,-3,28,-5,-1
1193,3,1,39,2,-3,29,-4,0
1194,4,2,38,2,-2,28,-3,1
1195,5,2,35,3,-2,24,-2,2
1196,6,1,32,4,-2,18,-2,2
1197,6,0,29,4,-2,11,-2,2
1198,6,-1,29,5,-3,6,-2,1
1199,6,-1,32,5,-4,5,-2,1
1200,6,-1,37,5,-4,11,-2,1
1201,7,-2,46,5,-4,23,-1,1
1202,8,-2,54,5,-4,39,-1,0
1203,9,-1,60,6,-4,54,0,0
1204,10,0,63,7,-3,62,1,0
1205,10,1,63,8,-3,65,3,0
1206,11,2,61,8,-2,62,5,0
1207,12,2,58,9,-1,57,6,0
1208,13,2,55,10,-1,52,8,0
1209,14,2,55,11,-1,50,9,0
1210,14,2,55,12,-1,49,9,0
1211,13,2,56,13,-2,48,9,0
1212,12,3,57,13,-2,46,8,1
1213,12,4,58,14,-1,44,8,1
1214,11,4,59,15,-1,43,9,2
1215,11,4,61,15,-1,42,9,3
1216,11,4,64,14,-1,43,8,3
1217,10,3,67,14,-1,45,8,3
1218,10,3,70,13,-1,46,7,4
1219,9,3,73,12,-1,45,7,4
1220,8,3,76,12,-1,43,6,5
1221,7,3,77,12,-1,41,6,5
1222,7,3,77,11,-1,40,6,5
1223,6,3,75,11,-1,40,6,4
1224,6,3,74,10,-1,42,7,3
1225,7,3,74,10,-1,45,7,2
1226,7,3,75,10,0,48,7,2
1227,7,2,76,10,0,48,7,2
1228,6,1,76,9,0,48,7,1
1229,5,0,76,8,-1,47,5,-1
1230,4,-1,77,6,-2,48,4,-3
1231,2,-1,78,5,-2,49,2,-4
1232,1,0,78,5,-3,50,1,-4
1233,1,0,78,5,-2,50,1,-4
1234,1,0,78,5,-2,50,0,-4
1235,1,-1,76,5,-1,50,0,-3
1236,2,-2,75,4,-1,54,0,-3
1237,3,-3,77,3,-1,62,0,-3
1238,5,-3,80,2,-1,72,-1,-2
1239,6,-3,82,2,-1,76,0,-1
1240,6,-3,82,4,-1,73,0,0
1241,6,-3,79,6,0,65,0,1
1242,5,-2,77,6,0,57,-1,1
1243,3,-1,76,4,0,53,-3,2
1244,1,0,76,1,-1,51,-5,1
1245,-2,0,76,-3,0,50,-7,1
1246,-3,-1,76,-6,1,49,-8,1
1247,-3,-2,74,-7,2,44,-8,0
1248,-2,-4,69,-4,3,33,-7,-1
1249,-1,-6,63,0,4,21,-5,-2
1250,-1,-8,59,3,4,12,-3,-3
1251,0,-10,55,5,2,8,-2,-4
1252,1,-10,50,6,1,5,-1,-5
1253,3,-9,46,6,1,3,0,-5
1254,5,-6,43,6,1,3,1,-5
1255,6,-4,41,5,2,3,1,-4
1256,6,-2,42,5,2,4,1,-3
1257,3,-2,45,4,2,5,-1,-3
1258,-1,-2,48,2,2,5,-4,-3
1259,-4,-3,47,-1,2,4,-7,-4
1260,-5,-3,42,-3,1,2,-8,-4
1261,-4,-3,36,-5,1,0,-8,-4
1262,-4,-3,33,-5,1,1,-8,-4
1263,-4,-4,33,-6,1,4,-7,-4
1264,-4,-4,33,-6,0,8,-6,-4
1265,-3,-4,34,-5,0,11,-5,-4
1266,-3,-4,35,-4,1,13,-4,-3
1267,-2,-3,35,-3,1,13,-4,-3
1268,0,-3,33,-2,2,12,-3,-2
1269,1,-3,32,-1,3,10,-3,-1
1270,2,-3,32,-1,3,8,-3,-1
1271,2,-3,31,-1,4,8,-3,0
1272,3,-2,30,-2,4,10,-3,1
1273,3,-1,30,-3,4,12,-3,1
1274,3,0,29,-4,5,13,-2,1
1275,3,1,31,-5,5,13,-1,0
1276,2,1,32,-5,5,14,-1,-1
1277,2,2,33,-4,5,13,1,-1
1278,3,2,32,-2,5,12,3,0
1279,3,3,30,0,5,11,4,1
1280,4,4,29,2,5,10,4,2
1281,3,5,28,3,5,9,5,2
1282,3,5,30,3,5,9,5,2
1283,2,5,32,4,4,12,5,2
1284,2,4,36,4,4,18,6,1
1285,3,3,39,5,3,24,6,2
1286,4,3,41,6,4,30,6,2
1287,4,3,42,7,5,33,7,2
1288,4,4,42,6,6,36,6,3
1289,4,4,43,5,8,38,5,3
1290,3,3,42,3,9,38,4,4
1291,3,1,40,1,8,35,2,3
1292,4,0,37,-1,7,30,1,3
1293,4,-1,34,-2,6,26,1,2
1294,4,-2,31,-2,6,23,0,2
1295,4,-2,29,-2,4,21,-1,1
1296,4,-3,28,-2,3,20,-1,1
1297,4,-3,27,-2,3,19,-1,1
1298,4,-3,28,-1,2,19,0,1
1299,3,-3,29,0,2,20,1,1
1300,3,-3,30,1,1,20,2,2
1301,3,-3,29,1,1,21,3,2
1302,3,-3,26,1,1,21,3,2
1303,3,-2,22,-1,0,21,3,1
1304,3,-3,17,-1,-2,19,2,1
1305,2,-3,12,-2,-3,17,1,0
1306,1,-2,9,-2,-4,15,1,-1
1307,0,-2,7,-1,-5,13,2,-1
1308,-1,-1,5,0,-5,10,3,-1
1309,0,1,1,2,-4,5,5,-1
1310,1,2,-6,4,-3,-1,7,0
1311,2,3,-14,5,-2,-7,8,0
1312,3,3,-21,6,-1,-12,9,0
1313,4,2,-26,7,-1,-16,10,0
1314,5,2,-28,7,-1,-20,10,-1
1315,5,2,-29,6,-1,-23,10,-1
1316,5,2,-28,6,0,-24,9,-1
1317,5,2,-27,5,1,-25,9,0
1318,5,2,-25,3,1,-25,7,0
1319,4,2,-23,0,2,-26,6,-1
1320,4,1,-21,-2,2,-27,4,-1
1321,3,0,-19,-3,2,-28,3,-1
1322,2,-1,-18,-3,2,-31,3,-2
1323,1,-1,-18,-4,1,-34,2,-3
1324,1,-1,-18,-4,-1,-37,2,-4
1325,1,-2,-17,-5,-2,-39,1,-4
1326,1,-2,-15,-5,-3,-42,0,-4
1327,1,-2,-13,-5,-3,-43,-1,-4
1328,1,-2,-11,-5,-3,-43,-2,-4
1329,0,-2,-9,-5,-2,-41,-3,-3
1330,-1,-2,-7,-4,-2,-41,-3,-3
1331,-1,-3,-4,-4,-2,-41,-3,-4
1332,-2,-4,-1,-4,-2,-42,-3,-4
1333,-3,-4,1,-4,-3,-42,-3,-5
1334,-3,-4,4,-4,-3,-41,-3,-5
1335,-3,-4,6,-4,-3,-38,-3,-5
1336,-3,-4,8,-5,-4,-34,-4,-5
1337,-2,-4,11,-5,-4,-29,-4,-5
1338,-1,-4,14,-5,-4,-24,-4,-4
1339,-1,-4,16,-5,-3,-20,-4,-4
1340,0,-3,17,-4,-3,-19,-3,-3
1341,-1,-2,17,-4,-3,-20,-3,-2
1342,-2,-1,17,-5,-2,-22,-4,-2
1343,-4,-1,18,-6,-2,-25,-5,-1
1344,-5,-2,20,-7,-2,-26,-7,-1
1345,-6,-3,23,-7,-2,-25,-8,-1
1346,-5,-3,26,-8,-2,-23,-8,-1
1347,-4,-4,29,-7,-2,-18,-7,-1
1348,-3,-4,32,-6,-3,-10,-6,-1
1349,-2,-4,35,-5,-3,-3,-5,-2
1350,0,-4,37,-4,-3,3,-5,-2
1351,1,-4,38,-3,-3,6,-5,-2
1352,1,-4,39,-3,-3,7,-5,-2
1353,2,-4,39,-3,-2,7,-5,-2
1354,3,-4,37,-3,-2,7,-4,-2
1355,4,-4,35,-3,-1,6,-3,-2
1356,5,-4,34,-3,-1,6,-2,-1
1357,5,-4,32,-3,0,6,-1,0
1358,5,-3,31,-3,1,6,0,1
1359,5,-2,30,-4,1,6,0,1
1360,5,-1,29,-4,2,6,0,2
1361,6,-1,28,-4,2,7,0,2
1362,6,0,28,-4,1,8,0,1
1363,7,0,27,-4,1,9,0,1
1364,7,0,27,-3,0,11,1,2
1365,6,0,27,-2,-1,14,1,2
1366,7,0,27,-1,-1,15,2,3
1367,7,1,27,0,-1,16,3,3
1368,8,1,28,0,-1,17,3,4
1369,8,1,30,0,-1,18,2,4
1370,9,1,32,-1,0,19,2,4
1371,9,1,33,-3,0,20,1,4
1372,8,2,32,-4,-1,20,-1,4
1373,8,2,30,-6,-1,17,-2,4
1374,8,3,26,-7,-2,12,-2,4
1375,8,2,22,-8,-3,4,-3,4
1376,8,1,18,-8,-3,-5,-3,5
1377,8,0,16,-8,-4,-11,-4,4
1378,8,-1,18,-8,-5,-11,-3,4
1379,8,-2,22,-7,-5,-4,-3,3
1380,9,-3,28,-6,-5,11,-2,3
1381,10,-3,34,-5,-4,29,-1,3
1382,11,-2,40,-5,-3,46,1,3
1383,13,-1,43,-5,-1,56,2,3
1384,14,0,43,-5,-1,62,2,3
1385,14,1,42,-5,0,64,3,3
1386,13,1,40,-6,0,64,2,3
1387,13,1,40,-6,-1,63,1,2
1388,12,1,39,-6,-2,60,0,2
1389,11,1,37,-6,-3,57,-1,1
1390,11,1,35,-6,-4,52,-2,1
1391,11,2,31,-6,-5,44,-2,0
1392,11,2,25,-5,-5,32,-1,0
1393,11,3,19,-4,-5,17,1,0
1394,12,4,11,-3,-5,0,2,1
1395,13,5,4,-1,-4,-18,3,1
1396,13,6,-2,0,-4,-33,5,2
1397,14,7,-8,2,-3,-45,6,3
1398,15,7,-11,3,-3,-51,8,3
1399,16,8,-13,5,-4,-51,9,2
1400,17,8,-11,7,-4,-46,10,2
1401,17,9,-7,8,-4,-36,10,2
1402,18,9,-3,9,-4,-24,11,2
1403,18,9,2,9,-4,-11,11,2
1404,18,8,7,8,-3,1,11,2
1405,18,7,12,7,-2,11,11,2
1406,17,5,15,6,-2,17,10,1
1407,15,4,17,5,-2,19,9,1
1408,12,4,17,3,-2,19,8,0
1409,9,4,17,1,-2,17,6,0
1410,8,3,16,1,-3,14,5,-1
1411,8,3,16,1,-4,14,6,-2
1412,10,4,16,2,-4,18,8,-2
1413,13,4,18,5,-5,25,10,-2
1414,15,5,20,7,-4,33,12,-1
1415,16,7,22,8,-4,41,13,0
1416,15,8,24,7,-3,47,12,1
1417,14,8,26,6,-2,50,11,1
1418,14,9,28,5,0,49,10,1
1419,14,10,28,4,1,45,9,2
1420,14,10,29,3,1,41,8,2
1421,14,10,30,3,2,39,6,3
1422,14,10,30,3,1,37,5,2
1423,14,9,29,3,1,35,3,2
1424,14,8,29,3,0,35,3,1
1425,14,6,31,2,-1,38,3,1
1426,14,5,33,1,-1,43,3,1
1427,14,4,35,0,-1,48,3,0
1428,14,3,37,-1,-1,51,2,-1
1429,14,1,38,-2,-1,52,2,-2
1430,14,0,40,-2,-1,51,2,-2
1431,14,-2,41,-2,-2,50,3,-3
1432,14,-3,43,-2,-2,49,3,-3
1433,15,-3,44,-1,-1,50,3,-2
1434,15,-3,46,0,-1,50,2,-1
1435,16,-2,47,0,0,51,1,-1
1436,17,-2,48,0,0,54,1,0
1437,18,-2,50,0,1,57,1,0
1438,18,-2,52,-1,1,60,0,0
1439,18,-2,53,-2,1,61,-1,0
1440,17,-3,55,-2,0,61,-1,-1
1441,16,-3,55,-3,-1,60,-2,-1
1442,14,-3,55,-4,-3,59,-3,-2
1443,12,-3,55,-5,-4,59,-3,-3
1444,11,-3,53,-6,-5,60,-4,-4
1445,10,-3,52,-6,-6,61,-4,-4
1446,9,-3,50,-6,-6,63,-3,-3
1447,10,-2,49,-4,-6,67,-2,-2
1448,10,0,49,-3,-6,71,-1,-1
1449,11,1,50,-2,-5,76,1,1
1450,12,2,50,-1,-4,79,1,2
1451,14,2,50,0,-4,80,1,3
1452,15,1,50,1,-3,80,1,4
1453,16,2,51,1,-2,81,1,5
1454,17,2,50,1,-2,81,2,5
1455,18,2,49,1,-1,81,3,6
1456,18,2,49,1,0,81,4,6
1457,18,3,49,0,1,81,4,6
1458,18,3,50,0,3,82,4,6
1459,19,3,52,0,4,84,4,6
1460,19,4,52,1,5,85,4,6
1461,19,4,53,2,5,88,4,6
1462,19,5,53,3,5,93,4,7
1463,18,5,53,4,4,98,5,7
1464,17,5,54,4,4,104,6,6
1465,17,5,55,4,3,110,7,6
1466,16,4,57,4,3,114,7,5
1467,16,3,60,3,3,117,7,4
1468,16,2,62,2,3,119,7,4
1469,16,1,63,1,3,120,7,4
1470,15,0,62,0,3,119,6,3
1471,15,-1,61,-1,3,117,5,3
1472,15,-2,59,-2,2,114,4,2
1473,14,-2,56,-2,2,111,3,2
1474,14,-2,54,-3,2,109,3,1
1475,14,-2,53,-3,3,110,2,0
1476,14,-2,52,-3,3,112,3,0
1477,14,-2,52,-3,2,115,3,-1
1478,14,-3,51,-3,1,118,3,-2
1479,16,-5,50,-3,1,120,2,-2
1480,17,-5,49,-3,1,123,2,-2
1481,17,-5,49,-3,1,126,3,-1
1482,18,-5,49,-2,1,129,4,0
1483,18,-4,49,-2,1,131,5,1
1484,18,-3,48,-1,1,132,5,2
1485,18,-3,48,-1,0,132,6,2
1486,18,-3,48,-1,0,131,6,2
1487,18,-3,49,-1,0,129,6,1
1488,17,-4,49,-1,-1,127,6,0
1489,16,-3,48,-1,-1,124,6,-1
1490,15,-2,48,0,-1,121,5,-1
1491,14,-1,47,1,-1,117,5,0
1492,14,0,46,1,-1,115,5,0
1493,13,0,46,0,-1,113,5,1
1494,13,-1,47,-1,-1,112,4,1
1495,12,-1,47,-1,-1,111,3,1
1496,12,-1,47,-2,-1,110,3,1
1497,13,-1,46,-1,-2,108,4,1
1498,15,-1,46,0,-2,107,6,1
1499,17,-1,46,1,-2,107,8,1
1500,18,-2,47,2,-1,107,10,1
1501,19,-2,48,3,-1,107,10,1
1502,18,-2,49,3,-2,108,10,1
1503,18,-2,50,3,-2,108,10,1
1504,17,-2,51,4,-2,107,10,2
1505,17,-2,52,4,-1,106,11,3
1506,18,-2,52,4,-1,105,11,4
1507,18,-1,53,4,-1,104,12,4
1508,17,0,53,4,0,105,12,4
1509,16,1,53,4,1,105,12,4
1510,15,2,53,4,1,102,12,3
1511,13,3,53,3,1,99,11,2
1512,11,2,52,2,1,96,9,2
1513,10,2,51,1,1,94,8,1
1514,10,2,50,0,0,93,8,1
1515,10,2,48,1,0,92,7,2
1516,9,2,46,1,0,91,7,2
1517,9,2,45,2,1,89,7,2
1518,8,1,44,2,1,86,7,2
1519,8,0,43,2,0,84,7,2
1520,7,-1,42,2,0,82,6,1
1521,6,-1,41,1,-1,81,6,0
1522,5,0,40,1,-2,81,6,0
1523,5,1,39,1,-3,82,6,1
1524,5,1,38,0,-3,83,6,1
1525,5,1,37,-1,-3,83,5,1
1526,5,1,36,-1,-3,82,5,1
1527,5,0,35,-1,-3,81,5,1
1528,5,0,36,-1,-3,82,5,1
1529,5,-1,36,-1,-3,82,5,0
1530,5,-1,37,-1,-3,81,6,-1
1531,5,0,38,-1,-3,79,6,-2
1532,5,0,38,-1,-3,77,6,-3
1533,5,-1,37,-1,-4,74,6,-3
1534,5,0,37,0,-4,73,7,-3
1535,6,1,37,1,-3,73,9,-3
1536,6,2,37,2,-3,73,11,-2
1537,6,3,37,2,-2,72,12,-2
1538,6,5,37,2,-1,70,12,-1
1539,6,7,38,2,0,69,11,1
1540,5,7,38,2,0,70,10,2
1541,5,8,39,2,0,70,9,3
1542,5,7,39,2,0,69,8,3
1543,6,6,38,3,0,67,8,3
1544,7,5,37,4,0,66,9,3
1545,9,5,38,4,1,65,9,2
1546,10,5,38,5,1,65,10,2
1547,10,6,38,6,2,65,11,2
1548,11,6,37,6,2,65,11,2
1549,10,7,36,5,3,63,11,2
1550,10,8,33,4,3,57,10,2
1551,9,8,29,3,3,48,9,3
1552,9,7,25,2,3,38,7,3
1553,9,6,22,1,3,30,6,3
1554,9,5,21,1,2,27,6,3
1555,9,4,22,1,2,29,6,3
1556,9,3,26,1,2,37,7,3
1557,10,4,32,2,3,49,8,3
1558,10,4,37,3,4,61,9,3
1559,11,5,41,3,4,69,10,3
1560,10,6,42,4,4,74,11,2
1561,10,6,42,5,4,75,11,2
1562,9,5,41,5,3,73,11,1
1563,8,4,41,5,2,71,10,1
1564,7,3,42,5,1,70,10,0
1565,6,3,43,5,0,70,9,0
1566,5,2,44,5,-1,69,8,0
1567,5,2,45,5,-1,67,7,1
1568,5,3,46,6,-1,65,8,1
1569,5,3,46,6,-1,65,9,2
1570,5,3,45,7,1,64,10,2
1571,6,3,42,7,2,63,11,2
1572,7,3,41,6,3,62,11,2
1573,8,3,41,6,3,64,11,3
1574,9,3,42,6,3,67,11,3
1575,10,2,43,6,3,69,11,4
1576,11,1,44,6,2,70,10,4
1577,12,-1,44,6,2,71,10,4
1578,12,-2,44,6,1,71,10,4
1579,12,-2,45,6,0,72,10,3
1580,12,-3,45,6,-1,74,10,2
1581,13,-4,46,6,-2,76,11,1
1582,13,-4,46,6,-2,77,11,0
1583,14,-5,44,6,-3,75,10,0
1584,15,-5,42,7,-3,71,10,0
1585,15,-5,41,8,-3,69,9,0
1586,15,-4,41,9,-4,70,9,1
1587,14,-3,41,9,-4,71,8,2
1588,12,-2,40,9,-3,71,8,2
1589,10,-2,38,8,-3,69,8,2
1590,8,-2,38,6,-2,69,7,1
1591,7,-3,37,5,-2,68,8,-1
1592,7,-5,37,4,-1,67,8,-2
1593,8,-6,36,4,-2,65,9,-2
1594,9,-7,35,4,-2,62,9,-2
1595,10,-7,35,5,-3,60,9,-2
1596,10,-7,36,5,-3,61,9,-1
1597,10,-6,37,5,-2,64,9,0
1598,9,-6,39,5,-1,68,8,1
1599,8,-6,39,3,0,71,6,1
1600,6,-6,40,1,1,70,4,1
1601,6,-6,40,0,1,68,3,1
1602,7,-5,41,0,1,67,2,1
1603,8,-5,40,0,1,64,2,1
1604,10,-4,39,0,0,62,3,1
1605,11,-4,38,0,0,59,3,0
1606,11,-5,36,-1,-1,55,1,-1
1607,10,-5,34,-3,-2,52,-1,-2
1608,8,-5,32,-5,-3,50,-2,-2
1609,6,-5,31,-6,-3,51,-3,-3
1610,5,-5,30,-6,-3,51,-3,-3
1611,5,-5,29,-7,-3,51,-3,-2
1612,4,-5,28,-7,-3,49,-3,-2
1613,4,-6,28,-7,-4,49,-3,-3
1614,4,-6,27,-6,-4,48,-2,-3
1615,5,-6,27,-6,-5,48,-1,-3
1616,5,-6,26,-6,-5,47,-1,-3
1617,5,-5,26,-7,-5,47,-1,-4
1618,4,-5,26,-8,-5,46,-1,-4
1619,4,-4,27,-9,-5,47,-2,-4
1620,3,-3,27,-10,-5,49,-4,-3
1621,2,-2,27,-10,-5,51,-4,-3
1622,2,-2,27,-9,-5,53,-4,-3
1623,2,-2,27,-9,-5,54,-4,-3
1624,3,-3,26,-8,-6,53,-3,-4
1625,3,-3,25,-8,-6,50,-2,-5
1626,3,-4,23,-7,-5,46,-2,-6
1627,3,-4,21,-7,-5,40,-2,-7
1628,2,-4,19,-8,-5,36,-2,-8
1629,1,-4,19,-8,-5,34,-2,-8
1630,-1,-5,19,-8,-6,32,-3,-9
1631,-2,-5,20,-9,-7,31,-4,-9
1632,-3,-6,20,-10,-7,29,-5,-9
1633,-3,-6,19,-10,-6,27,-6,-9
1634,-2,-7,18,-11,-6,25,-6,-8
1635,-1,-7,17,-10,-6,24,-5,-7
1636,1,-8,16,-10,-6,25,-4,-7
1637,2,-8,14,-9,-7,25,-3,-6
1638,3,-9,13,-8,-7,25,-2,-5
1639,3,-8,11,-8,-7,23,-2,-5
1640,3,-8,10,-7,-7,21,-2,-4
1641,3,-7,10,-7,-7,21,-2,-4
1642,2,-5,9,-6,-6,20,-2,-3
1643,2,-4,9,-5,-6,18,-1,-3
1644,2,-3,7,-5,-6,14,0,-3
1645,2,-3,6,-4,-5,11,1,-3
1646,3,-2,5,-3,-4,8,2,-3
1647,3,-2,5,-2,-3,6,3,-3
1648,3,-1,6,-2,-2,4,4,-3
1649,3,-1,8,-2,-1,4,5,-3
1650,3,0,9,-2,-1,5,5,-4
1651,2,1,10,-2,-1,6,6,-4
1652,2,0,10,-2,0,5,6,-5
1653,3,-1,9,-2,0,3,7,-5
1654,3,-1,7,-2,0,0,7,-5
1655,4,-2,5,-1,0,-3,8,-4
1656,4,-2,4,1,-1,-4,9,-3
1657,5,-1,3,3,-1,-4,9,-2
1658,5,-1,2,4,-1,-4,10,-1
1659,4,1,1,5,-1,-4,10,-1
1660,4,1,1,6,-2,-5,10,-2
1661,3,1,1,6,-3,-5,10,-2
1662,4,0,0,5,-3,-5,10,-3
1663,4,0,-1,5,-4,-5,10,-3
1664,4,-1,-1,4,-4,-4,10,-3
1665,5,-2,-1,4,-3,-4,10,-4
1666,5,-3,-1,4,-3,-4,9,-4
1667,5,-3,1,3,-3,-3,9,-4
1668,4,-4,2,3,-3,0,8,-4
1669,4,-5,4,4,-4,3,7,-4
1670,4,-5,4,4,-4,4,6,-4
1671,4,-5,3,4,-5,4,6,-4
1672,4,-4,2,4,-5,5,6,-4
1673,4,-3,1,5,-4,6,5,-3
1674,4,-2,0,5,-3,8,5,-2
1675,3,-1,-2,6,-3,8,5,-2
1676,3,0,-3,6,-2,9,5,-1
1677,2,0,-4,7,-2,9,5,-1
1678,2,1,-6,6,-2,9,5,0
1679,2,1,-7,6,-1,9,5,0
1680,3,2,-8,6,-1,10,6,1
1681,3,2,-7,5,-2,11,6,1
1682,3,2,-6,5,-1,12,6,2
1683,3,2,-6,5,-1,13,6,2
1684,3,2,-6,4,0,13,6,3
1685,3,2,-6,4,1,14,6,3
1686,3,2,-7,4,1,15,6,2
1687,2,2,-7,3,1,15,5,2
1688,1,2,-7,2,1,14,4,2
1689,0,2,-8,2,2,10,3,2
1690,0,2,-9,2,2,6,3,3
1691,-1,2,-10,2,4,3,2,3
1692,0,2,-10,2,4,2,2,4
1693,1,1,-11,3,5,1,2,4
1694,2,1,-11,3,4,1,2,5
1695,2,1,-12,4,3,-1,2,5
1696,3,1,-12,4,2,-1,2,4
1697,4,1,-10,4,2,-1,2,4
1698,5,1,-9,4,2,0,2,4
1699,6,1,-7,3,2,0,2,3
1700,6,1,-6,3,2,1,2,3
1701,6,1,-5,2,3,2,1,3
1702,4,1,-3,1,3,5,0,2
1703,2,0,-1,0,3,7,-2,2
1704,1,0,-1,-1,2,8,-3,2
1705,1,0,-3,0,2,6,-3,2
1706,3,0,-7,2,2,3,-2,2
1707,4,1,-12,4,1,0,0,2
1708,6,2,-17,5,1,-3,2,1
1709,7,3,-20,5,1,-3,3,1
1710,7,3,-22,4,1,-3,2,1
1711,7,2,-24,2,1,-5,1,0
1712,8,1,-26,1,1,-9,-1,0
1713,8,0,-27,1,0,-12,-2,-1
1714,7,-2,-26,1,-1,-12,-2,-2
1715,6,-3,-25,1,-2,-11,-2,-2
1716,4,-4,-24,1,-3,-12,-2,-3
1717,2,-4,-25,1,-3,-13,-3,-3
1718,1,-4,-27,1,-3,-16,-4,-2
1719,0,-4,-31,0,-3,-22,-4,-1
1720,-1,-3,-35,-1,-3,-30,-6,-1
1721,-2,-2,-39,-3,-3,-39,-6,-1
1722,-3,-1,-42,-4,-2,-47,-7,-1
1723,-4,-1,-44,-5,-2,-53,-8,-2
1724,-5,-1,-42,-6,-1,-57,-9,-3
1725,-5,0,-38,-6,0,-56,-10,-3
1726,-4,0,-31,-6,1,-49,-10,-3
1727,-3,0,-23,-5,2,-38,-10,-3
1728,-1,1,-16,-3,2,-28,-9,-2
1729,0,2,-12,-2,3,-21,-8,-1
1730,2,2,-11,-1,4,-21,-7,0
1731,3,2,-14,0,5,-27,-7,1
1732,3,2,-19,1,6,-37,-7,1
1733,2,2,-23,1,6,-49,-8,0
1734,2,1,-27,0,6,-62,-9,-1
1735,1,-1,-32,0,6,-76,-10,-2
1736,0,-3,-35,0,6,-90,-11,-4
1737,-1,-5,-37,1,5,-102,-11,-6
1738,-2,-7,-37,0,5,-110,-11,-7
1739,-3,-8,-37,-1,5,-115,-11,-9
1740,-3,-9,-36,-2,5,-117,-11,-10
1741,-4,-9,-36,-2,5,-117,-11,-10
1742,-3,-9,-36,-2,5,-117,-10,-9
1743,-2,-9,-37,-2,5,-116,-9,-8
1744,0,-8,-38,-1,6,-114,-8,-7
1745,1,-8,-39,-1,6,-109,-7,-6
1746,2,-6,-39,0,6,-100,-5,-4
1747,3,-3,-37,1,6,-90,-4,-2
1748,4,-1,-35,2,6,-79,-2,-1
1749,4,2,-32,3,5,-68,-1,1
1750,5,4,-28,4,4,-55,1,2
1751,4,5,-23,5,3,-43,2,2
1752,3,5,-18,5,2,-31,2,2
1753,2,5,-14,4,1,-22,2,2
1754,-1,5,-10,4,1,-14,1,1
1755,-2,5,-6,4,1,-7,1,1
1756,-4,6,-3,4,0,0,1,1
1757,-5,6,0,4,0,7,1,1
1758,-5,7,3,5,0,12,2,2
1759,-4,6,5,6,-1,18,2,2
1760,-4,6,7,7,0,22,3,3
1761,-3,5,8,8,0,24,3,3
1762,-2,5,10,8,0,27,4,3
1763,-2,5,10,8,0,29,4,3
1764,-2,5,11,8,0,32,4,2
1765,-2,4,11,8,0,34,4,2
1766,-2,5,10,8,1,35,4,2
1767,-2,5,8,8,1,34,4,2
1768,-2,5,8,7,1,35,4,2
1769,-2,6,7,7,1,38,4,3
1770,-2,5,7,6,0,41,4,2
1771,-2,5,7,5,0,44,3,2
1772,-2,4,7,3,0,45,2,1
1773,-2,3,7,2,0,46,1,1
1774,-3,1,7,0,1,47,-2,1
1775,-3,0,7,-2,1,47,-4,0
1776,-5,0,7,-3,1,47,-6,0
1777,-6,0,8,-4,1,48,-7,1
1778,-7,1,10,-4,1,50,-8,1
1779,-7,1,11,-4,0,52,-8,1
1780,-7,2,12,-4,-1,54,-8,1
1781,-7,2,13,-4,-1,56,-8,1
1782,-7,2,13,-4,-2,57,-8,1
1783,-7,3,13,-5,-1,58,-8,1
1784,-7,3,13,-5,-1,61,-8,0
1785,-7,3,14,-6,-1,63,-7,0
1786,-6,3,14,-7,-1,65,-6,-1
1787,-5,2,15,-7,-1,69,-4,-1
1788,-5,2,16,-6,-1,73,-2,-1
1789,-4,2,18,-6,-2,78,-1,-1
1790,-4,3,18,-6,-2,84,-1,-1
1791,-5,4,19,-6,-2,91,0,-1
1792,-5,4,21,-5,-2,100,1,0
1793,-5,4,24,-5,-2,109,2,1
1794,-4,4,27,-4,-1,118,3,1
1795,-3,4,30,-2,-1,124,5,2
1796,-3,4,32,0,0,128,7,2
1797,-2,5,33,2,1,131,8,3
1798,0,5,32,4,2,132,11,3
1799,3,6,31,6,3,130,13,4
1800,6,7,28,9,4,126,16,5
1801,10,7,24,12,5,118,18,5
1802,13,6,20,14,5,103,19,5
1803,16,5,14,16,6,83,19,4
1804,18,4,7,17,6,61,19,3
1805,19,4,2,18,6,40,18,2
1806,19,4,-4,18,6,21,16,1
1807,19,5,-9,17,7,5,15,1
1808,18,5,-13,17,7,-8,13,1
1809,18,5,-17,15,6,-18,12,1
1810,17,5,-19,14,6,-22,12,2
1811,15,5,-20,12,5,-23,11,2
1812,12,6,-20,10,5,-22,11,1
1813,9,6,-19,8,4,-20,10,1
1814,5,6,-18,6,3,-18,8,0
1815,2,5,-18,3,2,-19,6,-1
1816,-1,4,-17,1,2,-20,4,-2
1817,-3,4,-16,-2,1,-21,1,-3
1818,-5,4,-15,-4,1,-23,-2,-4
1819,-6,3,-14,-5,0,-25,-4,-4
1820,-7,3,-13,-6,1,-27,-6,-3
1821,-8,3,-13,-7,1,-32,-8,-2
1822,-8,2,-13,-8,2,-38,-9,-2
1823,-9,2,-14,-8,3,-45,-10,-1
1824,-9,1,-14,-9,3,-51,-11,-1
1825,-10,0,-15,-9,3,-55,-12,-2
1826,-10,-1,-15,-9,2,-60,-12,-3
1827,-10,-3,-17,-9,1,-65,-12,-4
1828,-10,-4,-18,-9,1,-71,-12,-6
1829,-10,-5,-21,-9,1,-77,-12,-6
1830,-10,-6,-24,-9,1,-81,-12,-7
1831,-10,-6,-26,-8,0,-82,-12,-7
1832,-10,-7,-28,-8,-2,-81,-11,-6
1833,-10,-7,-30,-8,-3,-78,-10,-6
1834,-10,-6,-30,-8,-4,-76,-10,-5
1835,-11,-6,-31,-9,-4,-75,-9,-5
1836,-11,-6,-33,-9,-3,-78,-9,-5
1837,-12,-6,-35,-9,-2,-83,-9,-4
1838,-12,-6,-37,-8,-1,-88,-10,-4
1839,-12,-5,-38,-7,-1,-93,-10,-4
1840,-12,-5,-39,-7,0,-96,-10,-3
1841,-12,-4,-39,-6,0,-97,-10,-3
1842,-12,-2,-38,-6,0,-95,-10,-2
1843,-12,-1,-37,-7,0,-90,-10,-2
1844,-13,-1,-35,-8,0,-84,-11,-2
1845,-14,0,-33,-10,-1,-76,-11,-2
1846,-14,0,-29,-11,-1,-66,-12,-2
1847,-14,-1,-26,-12,-2,-55,-12,-2
1848,-14,-1,-23,-12,-3,-44,-12,-2
1849,-15,-1,-21,-12,-4,-33,-11,-2
1850,-15,0,-19,-11,-5,-20,-10,-2
1851,-15,1,-15,-10,-6,-4,-8,-3
1852,-16,2,-11,-9,-6,12,-6,-3
1853,-16,3,-8,-8,-6,30,-4,-4
1854,-16,3,-5,-7,-6,47,-2,-4
1855,-16,4,-1,-7,-6,63,0,-3
1856,-16,4,3,-7,-5,79,2,-3
1857,-17,5,7,-7,-5,95,4,-2
1858,-17,5,11,-7,-6,112,5,-1
1859,-17,6,15,-7,-6,127,5,-1
1860,-17,5,16,-7,-7,131,4,-2
1861,-16,5,13,-7,-6,122,2,-3
1862,-16,3,7,-6,-5,100,-2,-4
1863,-15,2,-1,-6,-4,72,-5,-4
1864,-15,1,-6,-6,-2,48,-7,-4
1865,-14,-1,-7,-6,-2,36,-8,-3
1866,-14,-1,-5,-6,-3,37,-8,-3
1867,-14,-1,0,-6,-4,47,-7,-2
1868,-13,-1,3,-7,-4,55,-6,-3
1869,-12,-2,4,-6,-4,55,-6,-3
1870,-11,-3,2,-6,-3,47,-7,-3
1871,-10,-4,-1,-6,-2,36,-8,-3
1872,-10,-4,-6,-5,-1,21,-9,-4
1873,-10,-5,-11,-5,0,5,-10,-4
1874,-10,-6,-17,-4,0,-10,-10,-5
1875,-10,-6,-20,-4,0,-21,-10,-5
1876,-10,-7,-21,-4,0,-28,-11,-5
1877,-10,-6,-22,-5,0,-32,-11,-4
1878,-11,-5,-23,-5,0,-34,-13,-4
1879,-12,-4,-24,-6,1,-35,-14,-4
1880,-12,-2,-25,-6,1,-37,-14,-3
1881,-12,-2,-27,-6,1,-38,-14,-3
1882,-12,-2,-28,-6,1,-39,-13,-3
1883,-11,-1,-29,-6,2,-40,-12,-3
1884,-11,-1,-31,-6,2,-41,-11,-2
1885,-10,-1,-33,-5,2,-44,-9,-2
1886,-10,-2,-36,-5,2,-50,-8,-3
1887,-10,-3,-39,-4,2,-58,-8,-3
1888,-10,-4,-43,-3,2,-69,-7,-4
1889,-10,-5,-49,-2,3,-81,-7,-4
1890,-9,-5,-55,-1,3,-94,-7,-4
1891,-8,-6,-61,-1,3,-106,-7,-4
1892,-7,-5,-64,-1,2,-112,-6,-3
1893,-7,-5,-62,-1,1,-108,-5,-3
1894,-6,-5,-55,-1,1,-94,-4,-3
1895,-6,-4,-48,-1,0,-78,-3,-3
1896,-5,-4,-41,0,-1,-63,-2,-3
1897,-5,-3,-37,0,-2,-53,-2,-2
1898,-5,-3,-36,0,-2,-49,-2,-2
1899,-6,-3,-37,0,-3,-51,-2,-2
1900,-7,-3,-39,-1,-3,-54,-3,-1
1901,-7,-3,-40,-1,-2,-58,-3,-1
1902,-8,-3,-40,0,-1,-62,-4,-1
1903,-8,-3,-41,0,0,-68,-5,-1
1904,-8,-2,-41,0,1,-72,-5,0
1905,-8,-2,-42,0,1,-75,-5,0
1906,-7,-1,-43,0,1,-78,-5,1
1907,-7,-1,-45,0,1,-80,-6,1
1908,-8,0,-46,0,1,-82,-6,1
1909,-9,0,-47,0,0,-84,-7,1
1910,-10,1,-48,0,-1,-87,-7,1
1911,-11,1,-48,0,-1,-90,-8,1
1912,-11,1,-49,0,-1,-93,-9,1
1913,-11,1,-49,1,0,-97,-9,1
1914,-10,1,-50,1,0,-101,-10,1
1915,-10,1,-51,1,1,-105,-10,1
1916,-10,0,-53,2,1,-108,-10,1
1917,-9,0,-54,1,1,-111,-10,1
1918,-9,-1,-57,1,1,-116,-10,1
1919,-8,-1,-60,1,0,-123,-10,1
1920,-8,-1,-63,0,0,-130,-11,1
1921,-8,-1,-65,0,0,-135,-11,1
1922,-8,0,-66,0,-1,-138,-12,1
1923,-9,0,-65,0,-2,-138,-12,1
1924,-11,1,-65,0,-2,-137,-11,1
1925,-12,2,-64,1,-2,-135,-10,1
1926,-12,3,-64,1,-1,-131,-8,1
1927,-12,3,-63,2,0,-125,-7,1
1928,-11,3,-61,3,0,-116,-5,1
1929,-10,3,-59,3,0,-107,-4,1
1930,-9,3,-56,3,0,-98,-3,0
1931,-8,3,-52,3,-1,-89,-2,1
1932,-8,3,-48,3,-1,-81,-1,1
1933,-7,3,-44,4,-2,-73,0,1
1934,-7,2,-41,4,-2,-67,1,1
1935,-7,1,-39,4,-2,-62,1,1
1936,-6,1,-37,4,-1,-57,2,1
1937,-5,0,-35,4,-1,-54,2,1
1938,-4,0,-34,4,0,-50,3,0
1939,-3,-1,-33,4,-1,-46,3,0
1940,-3,-1,-32,4,-2,-41,3,0
1941,-4,-2,-33,3,-3,-37,2,-1
1942,-4,-3,-34,2,-4,-35,2,-3
1943,-5,-3,-35,1,-4,-33,1,-3
1944,-5,-2,-37,0,-3,-33,1,-4
1945,-5,-1,-38,-1,-2,-34,1,-4
1946,-5,0,-40,-1,-1,-36,1,-3
1947,-5,1,-40,0,-1,-36,0,-2
1948,-4,1,-39,1,0,-35,0,-1
1949,-4,2,-38,1,0,-34,-1,-1
1950,-4,2,-37,1,0,-33,-2,0
1951,-4,1,-38,1,0,-36,-2,-1
1952,-4,1,-38,1,0,-40,-3,-1
1953,-4,0,-39,0,0,-44,-4,-1
1954,-4,0,-39,0,0,-48,-4,-1
1955,-3,-1,-40,0,0,-49,-4,-1
1956,-3,-1,-39,0,0,-47,-4,-1
1957,-2,-1,-38,-1,0,-42,-4,-1
1958,-2,-1,-37,-1,0,-36,-5,0
1959,-2,-1,-36,-1,0,-32,-5,0
1960,-2,0,-36,-1,0,-29,-5,0
1961,-2,0,-35,-2,0,-27,-4,0
1962,-2,1,-34,-2,0,-24,-4,-1
1963,-3,0,-32,-2,-1,-19,-2,-1
1964,-3,0,-30,-2,-1,-14,-1,-2
1965,-3,0,-27,-1,-3,-9,0,-2
1966,-4,0,-25,-1,-3,-4,0,-3
1967,-5,1,-24,-1,-3,1,0,-2
1968,-5,2,-22,-1,-2,5,-1,-1
1969,-4,3,-21,-2,-1,8,-1,0
1970,-4,4,-18,-2,0,14,-1,1
1971,-3,4,-16,-2,0,21,-1,2
1972,-3,4,-14,-2,1,25,-1,2
1973,-3,4,-13,-2,1,28,-1,2
1974,-4,4,-13,-2,0,28,-1,2
1975,-4,5,-13,-2,0,28,-1,3
1976,-5,6,-13,-1,0,27,0,3
1977,-5,6,-13,-1,-1,25,1,3
1978,-6,7,-12,-1,-1,27,1,4
1979,-7,7,-11,-1,-2,32,1,3
1980,-8,7,-9,-2,-2,38,0,3
1981,-9,8,-7,-3,-2,44,-1,3
1982,-10,8,-5,-4,-2,49,-1,2
1983,-10,8,-4,-4,-2,54,-1,2
1984,-10,9,-2,-4,-1,59,0,2
1985,-10,9,1,-3,0,63,1,2
1986,-10,9,2,-2,1,65,2,3
1987,-10,8,4,-1,2,69,3,3
1988,-9,7,6,-1,2,73,3,3
1989,-9,7,7,-2,2,77,3,3
1990,-9,6,6,-2,1,78,3,3
1991,-10,7,4,-3,1,76,3,3
1992,-10,7,1,-3,1,72,3,2
1993,-10,8,-2,-3,1,67,3,2
1994,-10,8,-3,-4,2,62,2,3
1995,-11,9,-2,-4,3,61,1,4
1996,-11,9,1,-5,3,62,0,5
1997,-11,9,3,-5,3,65,-1,5
1998,-10,9,4,-4,3,69,0,6
1999,-8,9,4,-3,3,74,2,6
2000,-6,9,4,-1,3,77,4,6
2001,-5,10,3,0,3,75,6,5
2002,-4,10,2,2,3,70,8,5
2003,-3,10,0,3,3,61,8,5
2004,-3,10,-2,3,3,50,6,4
2005,-2,9,-4,4,4,36,5,4
2006,-1,7,-8,4,4,22,4,4
2007,-1,6,-12,4,5,9,3,4
2008,-1,4,-17,3,5,-3,2,4
2009,-2,3,-20,3,5,-13,1,3
2010,-3,2,-23,2,4,-21,1,3
2011,-5,2,-24,1,3,-25,0,2
2012,-7,2,-23,0,2,-27,-1,2
2013,-9,2,-22,-1,1,-28,-2,1
2014,-10,2,-22,-2,0,-31,-3,0
2015,-11,2,-23,-3,0,-35,-4,-1
2016,-11,1,-24,-3,1,-40,-5,-2
2017,-11,0,-25,-4,1,-44,-5,-2
2018,-10,-1,-25,-4,2,-47,-6,-2
2019,-10,-1,-24,-4,2,-46,-5,-2
2020,-9,-1,-23,-3,3,-45,-4,-1
2021,-9,-1,-21,-3,3,-45,-4,0
2022,-10,-1,-20,-2,4,-47,-4,0
2023,-10,-1,-21,-1,5,-52,-4,0
2024,-10,0,-22,-1,5,-56,-3,0
2025,-9,0,-23,0,6,-58,-3,0
2026,-9,1,-24,1,6,-57,-3,0
2027,-8,1,-23,1,5,-54,-3,0
2028,-9,1,-22,2,5,-50,-3,0
2029,-9,1,-20,2,5,-47,-4,0
2030,-9,1,-18,2,5,-44,-3,-1
2031,-9,0,-17,2,4,-42,-3,-2
2032,-9,-1,-17,2,4,-41,-2,-2
2033,-8,-2,-18,1,3,-40,-2,-3
2034,-7,-3,-18,1,3,-38,-2,-3
2035,-7,-3,-17,1,2,-34,-1,-3
2036,-7,-4,-15,0,2,-29,-1,-3
2037,-7,-4,-13,-1,0,-26,-2,-4
2038,-8,-4,-12,-2,-1,-25,-2,-4
2039,-8,-4,-12,-2,-3,-24,-3,-5
2040,-9,-5,-12,-3,-4,-23,-4,-5
2041,-10,-5,-11,-3,-4,-22,-4,-5
2042,-10,-4,-11,-3,-4,-20,-5,-6
2043,-11,-3,-10,-2,-3,-17,-5,-6
2044,-11,-2,-10,-2,-2,-14,-4,-6
2045,-10,-1,-11,-2,-1,-14,-4,-6
2046,-10,-1,-11,-2,0,-16,-4,-6
2047,-9,-1,-11,-2,1,-17,-3,-6
2048,-8,-1,-11,-3,1,-18,-2,-6
2049,-7,-2,-11,-3,1,-18,-1,-6
2050,-6,-2,-11,-3,2,-17,-2,-6
2051,-6,-3,-10,-3,2,-17,-3,-5
2052,-7,-3,-10,-3,1,-17,-4,-5
2053,-7,-3,-8,-3,1,-18,-5,-5
2054,-7,-3,-7,-3,1,-20,-6,-4
2055,-7,-4,-5,-2,0,-21,-6,-3
2056,-6,-4,-4,-1,0,-21,-7,-2
2057,-6,-5,-4,0,1,-22,-7,-2
2058,-6,-5,-6,1,1,-24,-7,-2
2059,-6,-5,-10,1,2,-31,-7,-2
2060,-6,-5,-16,1,2,-40,-7,-2
2061,-5,-5,-21,1,3,-50,-7,-2
2062,-5,-5,-25,1,3,-60,-7,-2
2063,-4,-5,-27,1,2,-65,-7,-2
2064,-5,-6,-26,1,2,-64,-7,-2
2065,-5,-5,-21,1,2,-54,-6,-3
2066,-6,-5,-14,1,2,-38,-6,-3
2067,-7,-4,-8,1,1,-22,-5,-4
2068,-8,-3,-5,1,1,-10,-5,-4
2069,-8,-3,-5,1,1,-5,-4,-4
2070,-8,-2,-7,1,1,-8,-4,-3
2071,-9,-1,-11,2,2,-13,-4,-3
2072,-9,0,-15,2,2,-20,-4,-3
2073,-11,1,-18,2,2,-25,-6,-2
2074,-12,2,-20,2,1,-28,-7,-2
2075,-12,3,-22,2,1,-30,-7,-1
2076,-11,4,-25,2,1,-33,-6,-1
2077,-10,5,-28,3,1,-37,-4,0
2078,-9,5,-31,4,1,-41,-1,1
2079,-8,6,-34,5,1,-45,1,1
2080,-7,7,-35,6,2,-48,2,2
2081,-7,7,-36,5,2,-51,1,2
2082,-7,6,-36,3,3,-52,-1,2
2083,-7,6,-36,2,3,-51,-2,2
2084,-6,5,-36,1,2,-51,-4,1
2085,-6,4,-37,0,2,-52,-5,0
2086,-6,3,-39,-1,1,-55,-7,-1
2087,-6,3,-42,-1,2,-62,-9,-1
2088,-6,3,-46,-1,2,-71,-9,-1
2089,-6,3,-51,-1,3,-83,-10,0
2090,-5,3,-55,-1,3,-97,-9,0
2091,-4,3,-60,0,3,-113,-9,0
2092,-3,3,-66,0,4,-133,-9,-1
2093,-3,2,-75,0,4,-157,-9,-1
2094,-2,2,-83,0,4,-181,-10,-2
2095,-3,2,-88,1,4,-200,-10,-3
2096,-3,1,-91,1,4,-212,-11,-3
2097,-4,0,-90,0,4,-216,-11,-4
2098,-5,-2,-88,0,4,-214,-11,-4
2099,-5,-3,-84,-1,3,-206,-11,-5
2100,-6,-3,-80,-1,2,-195,-11,-5
2101,-6,-4,-75,-2,1,-178,-11,-5
2102,-6,-4,-67,-2,1,-158,-11,-5
2103,-6,-4,-58,-2,0,-135,-11,-5
2104,-7,-4,-49,-2,-1,-113,-10,-6
2105,-9,-3,-41,-3,-1,-92,-10,-6
2106,-10,-3,-34,-3,0,-73,-9,-6
2107,-11,-2,-28,-3,0,-56,-8,-6
2108,-11,-3,-24,-3,0,-41,-6,-5
2109,-10,-3,-20,-2,0,-28,-5,-4
2110,-9,-4,-18,-2,-1,-17,-4,-4
2111,-8,-5,-16,-1,-1,-8,-3,-4
2112,-8,-5,-15,-1,-2,-1,-3,-5
2113,-8,-5,-13,-2,-2,8,-4,-5
2114,-8,-5,-10,-3,-3,18,-5,-5
2115,-9,-5,-7,-3,-3,29,-6,-5
2116,-9,-4,-4,-4,-4,39,-7,-5
2117,-10,-4,0,-5,-4,50,-7,-4
2118,-10,-3,3,-5,-4,59,-7,-3
2119,-11,-2,7,-5,-4,68,-7,-3
2120,-11,-1,10,-6,-4,75,-6,-2
2121,-11,-1,14,-5,-3,83,-5,-2
2122,-10,-1,18,-5,-3,93,-4,-2
2123,-9,0,22,-4,-3,103,-2,-1
2124,-9,1,26,-3,-3,115,-1,-1
2125,-9,3,30,-2,-3,129,-1,1
2126,-10,4,33,-2,-3,142,0,2
2127,-10,4,34,-2,-3,149,1,2
2128,-10,3,32,-2,-3,147,0,1
2129,-10,2,28,-3,-2,137,-1,1
2130,-10,2,24,-3,-1,122,-2,1
2131,-10,1,17,-3,1,100,-3,1
2132,-10,1,4,-3,3,62,-5,1
2133,-10,1,-13,-3,5,12,-8,2
2134,-9,2,-27,-3,6,-33,-9,2
2135,-8,3,-34,-3,7,-56,-9,3
2136,-8,4,-33,-3,6,-58,-9,4
2137,-8,4,-26,-3,5,-39,-7,4
2138,-8,5,-13,-3,4,-6,-6,4
2139,-9,5,1,-3,2,34,-4,4
2140,-9,4,12,-3,0,70,-4,3
2141,-9,3,19,-4,-1,97,-4,2
2142,-9,3,24,-5,-2,119,-4,1
2143,-8,3,27,-5,-3,135,-4,2
2144,-7,3,24,-5,-2,138,-4,2
2145,-6,3,14,-5,-1,119,-4,2
2146,-5,2,1,-5,0,89,-5,2
2147,-4,2,-9,-5,0,64,-5,1
2148,-4,1,-13,-5,0,51,-5,0
2149,-3,0,-15,-5,0,43,-6,-1
2150,-3,-1,-18,-5,1,33,-6,-1
2151,-4,-1,-21,-5,1,22,-7,0
2152,-4,-2,-23,-4,2,14,-7,0
2153,-4,-2,-25,-4,2,11,-7,1
2154,-4,-4,-26,-3,2,9,-8,1
2155,-4,-5,-26,-3,2,7,-8,1
2156,-3,-6,-27,-3,2,4,-9,1
2157,-2,-7,-29,-3,1,-1,-9,1
2158,-2,-8,-32,-3,1,-8,-10,1
2159,-2,-7,-35,-2,0,-16,-10,1
2160,-3,-6,-38,-2,-1,-24,-10,2
2161,-4,-6,-41,-1,-1,-31,-10,2
2162,-5,-5,-43,-2,-1,-37,-10,1
2163,-6,-4,-45,-2,-1,-43,-10,1
2164,-6,-4,-47,-2,0,-48,-9,1
2165,-6,-3,-49,-3,-1,-48,-8,0
2166,-5,-3,-48,-3,-2,-44,-7,0
2167,-5,-2,-47,-3,-3,-39,-7,0
2168,-5,-2,-47,-3,-4,-35,-7,-1
2169,-6,-1,-46,-4,-5,-33,-8,-1
2170,-6,-1,-46,-4,-5,-32,-8,-1
2171,-6,-1,-46,-5,-5,-32,-8,-1
2172,-6,-1,-47,-5,-4,-33,-8,-1
2173,-5,-1,-46,-4,-3,-35,-7,-2
2174,-3,-1,-46,-3,-2,-37,-6,-2
2175,-3,-1,-46,-3,-2,-38,-4,-2
2176,-3,-1,-46,-3,-2,-37,-3,-2
2177,-4,0,-46,-4,-2,-37,-3,-3
2178,-6,0,-47,-5,-3,-36,-3,-3
2179,-7,0,-46,-5,-3,-36,-4,-3
2180,-8,0,-44,-5,-3,-35,-4,-3
2181,-9,0,-41,-5,-2,-34,-5,-3
2182,-8,-1,-40,-4,-2,-34,-5,-3
2183,-7,-1,-40,-4,-1,-36,-5,-3
2184,-5,-1,-41,-3,-1,-37,-5,-3
2185,-3,-2,-40,-1,-1,-37,-3,-3
2186,-2,-2,-40,0,0,-35,-2,-2
2187,-1,-2,-39,0,-1,-35,-2,-2
2188,-1,-2,-39,0,-1,-35,-1,-2
2189,-1,-2,-39,0,-2,-34,-1,-2
2190,-1,-1,-39,-1,-2,-31,-1,-2
2191,-2,0,-40,-1,-2,-28,-1,-2
2192,-2,1,-41,-2,-3,-26,-1,-2
2193,-3,2,-42,-2,-3,-25,-1,-1
2194,-3,3,-43,-2,-3,-25,-1,-1
2195,-3,3,-43,-1,-3,-25,0,0
2196,-3,4,-43,0,-3,-25,0,1
2197,-2,5,-43,0,-3,-27,0,2
2198,-1,5,-43,1,-3,-29,-1,3
2199,0,5,-43,1,-2,-31,-1,3
2200,1,4,-44,1,-2,-35,-1,3
2201,1,3,-43,1,-2,-37,-2,2
2202,1,2,-43,1,-3,-38,-2,1
2203,1,1,-43,1,-3,-38,-2,0
2204,0,0,-44,1,-3,-39,-3,-1
2205,0,-1,-45,0,-2,-40,-3,-1
2206,-1,-1,-45,0,-2,-43,-4,-1
2207,-2,-1,-45,-1,-1,-46,-5,0
2208,-3,-1,-43,-1,0,-48,-5,0
2209,-4,-1,-41,-2,0,-47,-6,-1
2210,-4,-1,-39,-2,0,-46,-6,-1
2211,-4,-1,-38,-1,1,-43,-5,-1
2212,-3,-2,-36,0,0,-41,-4,-2
2213,-2,-3,-33,1,-1,-38,-4,-2
2214,0,-5,-31,2,-1,-35,-3,-3
2215,1,-5,-29,3,-2,-33,-3,-3
2216,2,-6,-29,4,-3,-31,-2,-3
2217,2,-6,-29,4,-4,-30,-1,-3
2218,2,-5,-29,4,-3,-28,-1,-3
2219,1,-5,-30,4,-3,-27,0,-2
2220,1,-5,-32,4,-2,-27,1,-2
2221,1,-4,-34,3,-2,-29,1,-2
2222,0,-3,-36,1,-3,-30,1,-2
2223,-1,-3,-37,-1,-4,-30,0,-2
2224,-2,-3,-38,-2,-5,-29,0,-3
2225,-3,-3,-37,-3,-6,-27,-1,-3
2226,-4,-2,-37,-4,-6,-26,-2,-3
2227,-5,-2,-37,-5,-7,-26,-3,-3
2228,-6,-2,-37,-5,-6,-27,-4,-3
2229,-6,-2,-37,-6,-5,-27,-4,-2
2230,-6,-2,-36,-6,-4,-26,-4,-2
2231,-6,-1,-35,-7,-3,-26,-5,-2
2232,-6,-1,-33,-8,-1,-25,-5,-1
2233,-6,-1,-32,-8,-1,-26,-5,0
2234,-6,0,-32,-8,-1,-29,-5,0
2235,-6,0,-33,-7,-2,-34,-5,0
2236,-6,-1,-36,-7,-2,-42,-5,-1
2237,-5,-1,-40,-5,-2,-52,-4,-2
2238,-5,-2,-43,-4,-2,-60,-2,-2
2239,-3,-1,-45,-1,-2,-62,0,-1
2240,-1,-1,-42,2,-2,-57,4,-1
2241,2,1,-35,5,-1,-45,7,1
2242,5,2,-26,9,0,-29,11,2
2243,7,4,-19,12,1,-14,14,3
2244,10,5,-14,15,1,-5,18,4
2245,12,5,-14,17,2,-2,20,5
2246,13,6,-16,19,3,-3,21,6
2247,14,6,-17,20,4,-7,22,6
2248,16,7,-18,21,5,-11,23,7
2249,16,7,-15,22,5,-12,24,8
2250,17,7,-12,23,5,-10,25,8
2251,17,7,-9,24,5,-7,26,7
2252,16,7,-7,24,4,-4,27,7
2253,16,7,-6,23,4,-1,27,6
2254,14,7,-6,22,4,1,27,5
2255,14,7,-7,21,4,3,25,4
2256,13,7,-9,20,3,3,24,4
2257,11,7,-11,20,2,4,22,3
2258,10,8,-12,18,1,4,21,3
2259,8,9,-13,17,1,5,19,4
2260,6,9,-14,15,0,5,17,4
2261,4,10,-14,13,0,4,15,5
2262,3,10,-15,12,0,2,13,6
2263,1,11,-16,10,1,-1,11,5
2264,-1,10,-16,9,1,-3,9,5
2265,-2,9,-15,8,1,-4,7,4
2266,-3,8,-15,7,1,-4,4,3
2267,-4,6,-14,5,1,-5,3,2
2268,-5,4,-14,4,0,-6,1,2
2269,-5,3,-13,4,0,-7,0,2
2270,-5,3,-12,5,0,-8,0,3
2271,-5,3,-11,5,0,-7,0,4
2272,-6,4,-10,5,1,-6,-1,4
2273,-7,4,-10,4,1,-3,-1,3
2274,-7,4,-10,2,1,-2,-2,2
2275,-8,3,-11,1,1,-1,-2,1
2276,-8,2,-14,-1,1,-1,-3,-1
2277,-8,1,-16,-1,0,-1,-3,-2
2278,-8,0,-19,-2,0,0,-3,-2
2279,-8,-1,-20,-2,-1,0,-4,-3
2280,-9,-2,-21,-3,-1,0,-4,-3
2281,-10,-3,-20,-4,-2,2,-5,-3
2282,-12,-3,-19,-6,-3,3,-7,-4
2283,-13,-3,-17,-7,-4,3,-8,-4
2284,-14,-3,-17,-8,-4,3,-10,-4
2285,-15,-4,-17,-10,-5,3,-11,-5
2286,-14,-5,-17,-11,-5,1,-12,-5
2287,-13,-7,-19,-12,-4,-2,-13,-6
2288,-12,-8,-20,-12,-5,-6,-13,-6
2289,-11,-9,-22,-12,-5,-9,-13,-7
2290,-10,-9,-24,-11,-5,-12,-13,-7
2291,-11,-8,-26,-10,-6,-13,-12,-7
2292,-11,-7,-28,-9,-6,-15,-11,-7
2293,-12,-6,-29,-8,-6,-16,-10,-6
2294,-12,-5,-30,-7,-5,-18,-9,-6
2295,-12,-4,-29,-7,-5,-19,-8,-5
2296,-12,-3,-28,-7,-4,-19,-7,-4
2297,-11,-2,-25,-7,-3,-16,-6,-4
2298,-11,-2,-22,-7,-2,-12,-6,-3
2299,-10,-1,-21,-8,-2,-9,-6,-3
2300,-10,-1,-20,-8,-2,-7,-6,-3
2301,-10,0,-20,-8,-2,-7,-6,-3
2302,-9,0,-21,-8,-3,-7,-6,-3
2303,-9,0,-22,-8,-3,-9,-6,-3
2304,-9,-1,-23,-7,-4,-10,-6,-4
2305,-9,-2,-22,-7,-4,-10,-6,-5
2306,-8,-2,-19,-7,-4,-7,-6,-5
2307,-8,-3,-17,-7,-4,-4,-7,-5
2308,-7,-3,-16,-8,-3,-2,-8,-4
2309,-6,-3,-16,-9,-2,-1,-9,-2
2310,-5,-2,-16,-9,-2,1,-10,-1
2311,-5,-2,-17,-10,-2,1,-10,0
2312,-5,-1,-18,-11,-2,2,-10,1
2313,-6,-1,-20,-12,-2,1,-10,0
2314,-6,-2,-22,-12,-2,-1,-10,-1
2315,-6,-2,-23,-11,-2,-3,-9,-2
2316,-7,-3,-23,-11,-2,-4,-9,-2
2317,-6,-4,-22,-10,-2,-3,-8,-3
2318,-6,-4,-20,-9,-3,-1,-8,-3
2319,-7,-4,-18,-9,-3,1,-8,-4
2320,-7,-5,-16,-8,-4,0,-8,-4
2321,-8,-4,-16,-8,-4,-2,-8,-4
2322,-8,-4,-16,-7,-5,-2,-7,-4
2323,-8,-3,-16,-7,-5,-2,-7,-4
2324,-8,-3,-16,-7,-5,-1,-6,-4
2325,-8,-2,-16,-7,-5,-2,-6,-4
2326,-8,-2,-18,-7,-5,-5,-6,-3
2327,-8,-1,-19,-7,-5,-7,-6,-3
2328,-8,-1,-19,-7,-5,-9,-6,-3
2329,-9,-2,-19,-7,-5,-11,-6,-3
2330,-9,-1,-19,-7,-5,-12,-6,-3
2331,-9,-1,-19,-7,-5,-12,-7,-2
2332,-9,1,-18,-7,-5,-10,-8,-2
2333,-9,2,-18,-7,-5,-8,-8,-1
2334,-8,3,-19,-6,-5,-5,-8,0
2335,-7,3,-19,-6,-5,-3,-6,1
2336,-6,4,-20,-5,-5,0,-5,1
2337,-5,4,-20,-5,-4,3,-4,2
2338,-4,4,-21,-5,-3,7,-2,3
2339,-4,5,-21,-4,-2,11,-2,3
2340,-4,6,-22,-4,-1,13,-1,4
2341,-5,6,-22,-4,-1,13,-1,4
2342,-5,5,-23,-4,0,11,-1,4
2343,-5,5,-23,-4,0,8,-1,4
2344,-6,5,-24,-4,-1,6,-1,4
2345,-6,6,-25,-4,-1,6,-1,4
2346,-6,6,-26,-4,-1,6,-1,3
2347,-6,5,-27,-4,-2,6,0,2
2348,-6,5,-27,-4,-2,4,0,1
2349,-6,5,-28,-4,-3,3,-1,1
2350,-6,5,-28,-4,-3,2,-1,1
2351,-6,5,-27,-5,-2,1,-1,1
2352,-5,6,-23,-5,-1,0,-1,2
2353,-4,6,-18,-4,0,0,0,3
2354,-3,7,-12,-4,1,1,1,3
2355,-2,7,-5,-3,2,3,2,4
2356,-2,7,0,-2,2,5,2,5
2357,-2,7,3,-1,1,5,3,6
2358,-2,7,5,-1,1,4,2,6
2359,-2,7,6,0,0,3,2,6
2360,-2,7,8,0,0,2,2,6
2361,-2,7,11,1,0,2,1,6
2362,-2,8,13,1,0,3,1,6
2363,-2,8,15,0,0,4,1,6
2364,-2,8,16,0,1,5,1,6
2365,-2,8,17,-1,1,7,1,6
2366,-1,8,17,-1,1,8,1,6
2367,-1,7,18,-1,1,9,1,5
2368,-2,7,20,-1,1,12,1,5
2369,-3,7,22,1,1,15,1,5
2370,-5,9,23,2,0,18,1,5
2371,-8,12,23,3,0,19,2,5
2372,-11,15,22,3,-1,20,3,5
2373,-13,18,20,3,-2,20,3,4
2374,-14,19,18,3,-3,19,3,4
2375,-14,19,14,4,-3,17,3,3
2376,-14,19,12,4,-3,15,3,3
2377,-13,19,10,4,-3,14,3,3
2378,-13,19,9,4,-2,13,4,3
2379,-13,19,9,4,-1,12,4,3
2380,-14,19,8,4,0,12,4,4
2381,-16,20,9,3,1,13,3,4
2382,-16,19,9,3,0,17,3,3
2383,-16,19,9,4,0,19,4,3
2384,-15,17,8,5,-1,19,6,3
2385,-13,16,7,7,-1,17,8,3
2386,-12,15,5,7,-1,14,9,3
2387,-11,15,5,8,-1,12,10,3
2388,-11,15,5,8,0,12,10,4
2389,-10,15,7,8,0,12,9,4
2390,-10,15,7,7,0,13,9,4
2391,-8,15,8,8,0,12,9,3
2392,-8,14,8,8,-1,12,10,2
2393,-7,14,9,7,-1,12,10,2
2394,-7,14,9,6,-1,12,9,1
2395,-8,14,8,4,-1,11,8,1
2396,-8,13,7,3,0,10,7,1
2397,-8,13,6,2,0,10,7,1
2398,-8,12,5,2,1,10,6,1
2399,-8,11,4,2,1,10,6,1
2400,-7,10,5,2,0,10,6,1
2401,-7,9,5,2,-1,11,5,1
2402,-7,8,5,2,-1,12,4,1
2403,-8,8,5,2,-2,12,3,0
2404,-9,8,6,1,-2,12,1,0
2405,-10,8,7,1,-2,12,0,0
2406,-12,9,9,0,-2,12,-1,0
2407,-12,8,10,1,-2,10,-1,0
2408,-13,8,11,1,-1,9,-2,1
2409,-14,8,13,1,-1,10,-2,1
2410,-15,7,15,1,-1,12,-3,0
2411,-16,7,16,1,-1,14,-4,0
2412,-16,6,17,1,-1,14,-5,-1
2413,-16,5,16,1,-1,14,-5,-1
2414,-16,4,14,1,-1,12,-5,-1
2415,-16,3,11,0,-1,7,-5,-1
2416,-16,2,7,-1,-1,0,-4,-2
2417,-15,2,2,-2,-1,-9,-4,-3
2418,-14,1,-3,-2,-2,-19,-3,-3
2419,-13,1,-9,-3,-2,-29,-3,-4
2420,-12,0,-12,-3,-3,-36,-2,-4
2421,-11,0,-12,-2,-3,-37,-1,-4
2422,-10,1,-9,-1,-4,-31,-1,-4
2423,-10,1,-3,0,-4,-18,0,-3
2424,-9,2,4,1,-4,-2,0,-3
2425,-8,3,8,1,-4,13,1,-3
2426,-7,4,9,1,-4,21,1,-3
2427,-7,4,7,1,-4,22,2,-3
2428,-6,3,4,1,-5,18,2,-3
2429,-5,2,2,1,-5,14,3,-3
2430,-5,1,2,1,-6,10,3,-2
2431,-5,0,2,2,-6,8,4,-2
2432,-5,0,3,3,-6,8,5,-2
2433,-5,0,3,4,-6,8,6,-1
2434,-4,1,3,5,-5,8,7,-1
2435,-3,1,2,6,-5,7,7,0
2436,-2,1,0,6,-4,6,7,1
2437,-3,0,-2,6,-4,5,7,2
2438,-3,0,-4,6,-3,4,6,3
2439,-3,0,-6,5,-3,5,6,3
2440,-3,0,-7,5,-2,6,5,3
2441,-2,1,-9,5,-2,8,5,4
2442,-2,2,-11,5,-2,9,6,4
2443,-1,3,-13,5,-2,9,6,4
2444,-1,3,-13,6,-2,9,6,3
2445,-1,3,-13,6,-2,10,6,3
2446,0,3,-13,6,-2,11,6,3
2447,1,3,-13,6,-2,12,6,2
2448,2,3,-14,5,-2,11,7,2
2449,3,3,-15,4,-2,9,7,2
2450,4,2,-16,4,-2,7,7,2
2451,4,1,-16,4,-2,5,7,1
2452,4,1,-14,4,-1,5,7,0
2453,4,1,-13,4,-1,6,7,0
2454,3,1,-11,4,-1,7,8,0
2455,3,1,-11,3,-1,6,8,-1
2456,3,0,-11,3,0,3,7,-1
2457,2,-1,-11,3,1,-1,6,-2
2458,1,-2,-10,2,1,-4,5,-3
2459,1,-3,-10,1,1,-5,4,-4
2460,1,-4,-9,0,1,-3,4,-4
2461,0,-5,-9,-1,1,0,3,-4
2462,-1,-5,-9,-2,0,2,3,-4
2463,-1,-4,-11,-3,0,2,2,-5
2464,-2,-3,-13,-4,0,1,1,-5
2465,-2,-3,-14,-5,0,0,1,-5
2466,-2,-4,-15,-6,-1,-1,0,-6
2467,-2,-5,-15,-6,-2,-3,0,-6
2468,-2,-7,-15,-6,-3,-6,0,-7
2469,-2,-8,-14,-6,-3,-6,-1,-7
2470,-2,-9,-13,-6,-2,-5,-1,-7
2471,-2,-10,-12,-6,-2,-4,-2,-7
2472,-1,-10,-12,-6,-2,-5,-2,-6
2473,-1,-11,-13,-6,-3,-6,-2,-7
2474,-1,-11,-14,-7,-3,-8,-3,-7
2475,0,-11,-14,-7,-3,-9,-3,-7
2476,0,-10,-15,-7,-4,-11,-4,-6
2477,0,-10,-16,-7,-3,-13,-4,-5
2478,-1,-9,-17,-7,-2,-16,-5,-4
2479,-2,-8,-18,-7,-2,-19,-6,-3
2480,-3,-7,-19,-8,-1,-21,-6,-2
2481,-3,-6,-19,-8,-1,-22,-6,-2
2482,-4,-4,-18,-8,0,-20,-5,-2
2483,-4,-3,-17,-8,0,-19,-5,-1
2484,-4,-3,-15,-7,0,-19,-5,0
2485,-4,-3,-13,-7,0,-18,-5,1
2486,-3,-3,-11,-7,-1,-16,-5,1
2487,-3,-3,-7,-6,-1,-11,-5,2
2488,-3,-3,-4,-6,-1,-6,-6,2
2489,-2,-2,-2,-5,0,-4,-6,2
2490,-1,-1,-1,-4,1,-3,-6,3
2491,-1,0,0,-3,2,-3,-6,4
2492,0,1,1,-1,2,-3,-5,4
2493,1,2,2,1,2,0,-5,5
2494,2,2,2,2,3,3,-3,6
2495,3,3,2,3,3,6,-2,7
2496,4,2,2,2,3,8,-1,7
2497,4,2,2,1,3,10,-1,7
2498,4,0,3,0,4,10,-1,7
2499,3,-1,4,-2,4,9,-2,6
2500,2,-2,4,-3,5,9,-3,6
2501,0,-2,4,-4,4,8,-5,5
2502,-1,-2,4,-5,3,8,-6,5
2503,-2,-2,4,-6,2,8,-7,4
2504,-3,-1,4,-7,1,9,-7,4
2505,-3,-1,5,-7,1,10,-7,4
2506,-3,0,5,-7,1,11,-7,5
2507,-3,0,4,-8,1,10,-6,5
2508,-3,1,3,-8,1,9,-5,5
2509,-3,1,2,-7,2,9,-4,5
2510,-3,2,3,-7,2,10,-4,5
2511,-3,3,3,-6,2,12,-3,5
2512,-3,4,4,-5,2,14,-3,6
2513,-4,5,4,-4,3,16,-3,6
2514,-4,6,4,-4,3,16,-3,6
2515,-3,5,4,-3,2,17,-2,7
2516,-3,5,5,-3,2,18,-2,6
2517,-2,4,5,-3,2,19,-3,6
2518,-1,2,4,-4,1,18,-3,6
2519,0,1,2,-6,1,16,-3,6
2520,0,1,0,-7,1,13,-3,6
2521,1,0,-1,-7,0,12,-2,5
2522,2,-1,-1,-8,1,12,-1,5
2523,3,-2,-1,-7,1,12,0,4
2524,3,-2,-1,-7,1,11,1,3
2525,4,-3,-1,-6,2,9,1,2
2526,4,-3,1,-6,2,8,1,2
2527,4,-2,1,-6,2,8,1,2
2528,3,-3,1,-6,2,7,0,2
2529,2,-3,1,-5,1,7,0,1
2530,2,-3,0,-5,1,6,-1,1
2531,1,-2,0,-5,1,7,-1,1
2532,0,-1,0,-5,2,8,-1,1
2533,-1,1,0,-5,4,9,-2,2
2534,-1,2,-2,-5,5,10,-2,3
2535,-1,4,-4,-5,5,9,-2,4
2536,-1,4,-6,-6,5,10,-2,4
2537,-1,5,-7,-6,4,13,-2,3
2538,-1,5,-7,-6,3,16,-1,2
2539,-1,4,-8,-6,2,17,-1,1
2540,0,3,-8,-6,1,15,0,0
2541,1,3,-9,-5,1,11,0,-1
2542,3,2,-9,-4,1,8,1,0
2543,4,2,-8,-3,1,5,1,1
2544,5,3,-8,-2,2,3,1,2
2545,5,3,-8,-1,3,1,1,3
2546,5,2,-8,-1,3,0,0,4
2547,5,2,-7,-2,3,1,-1,5
2548,5,1,-6,-2,3,4,-1,5
2549,6,0,-5,-3,3,6,0,4
2550,6,-1,-4,-3,3,7,1,3
2551,7,-2,-4,-3,2,7,2,1
2552,8,-3,-5,-2,1,6,2,0
2553,8,-5,-5,-3,0,6,2,-1
2554,8,-6,-4,-3,-1,7,2,-1
2555,7,-6,-3,-4,-2,8,1,-1
2556,6,-6,-2,-5,-2,9,1,-1
2557,4,-6,-2,-6,-2,10,0,-1
2558,2,-5,-3,-6,-3,9,0,-1
2559,1,-4,-4,-6,-3,7,-1,-1
2560,1,-3,-5,-5,-3,5,0,-1
2561,2,-3,-7,-4,-2,2,1,-1
2562,4,-4,-8,-3,-1,1,1,-1
2563,5,-5,-9,-2,-2,0,2,-1
2564,7,-6,-9,-1,-2,0,2,-2
2565,8,-8,-9,0,-3,-1,3,-2
2566,8,-8,-10,1,-4,-3,3,-2
2567,9,-8,-10,2,-4,-5,3,-1
2568,9,-7,-10,2,-4,-5,3,-1
2569,9,-6,-9,3,-4,-3,4,0
2570,9,-5,-8,4,-3,-2,5,-1
2571,9,-5,-8,4,-3,-3,6,-1
2572,8,-6,-8,4,-3,-4,6,-1
2573,8,-6,-8,4,-3,-4,6,-1
2574,8,-7,-9,4,-3,-4,6,-1
2575,8,-7,-9,4,-3,-3,6,-1
2576,8,-7,-10,4,-3,-2,7,-1
2577,8,-7,-10,4,-3,-1,9,-2
2578,9,-7,-9,4,-3,1,10,-2
2579,9,-6,-8,3,-3,3,11,-3
2580,9,-6,-8,3,-3,4,11,-3
2581,8,-5,-8,2,-2,2,10,-3
2582,7,-5,-9,2,-2,-1,9,-2
2583,7,-4,-10,3,-1,-3,8,-2
2584,7,-3,-10,4,0,-4,8,-1
2585,8,-2,-10,6,1,-4,9,0
2586,8,-2,-10,8,1,-3,10,0
2587,9,-2,-11,9,1,-2,11,1
2588,9,-1,-12,9,1,0,12,1
2589,9,-1,-13,9,1,1,12,2
2590,8,0,-13,9,2,2,12,3
2591,8,1,-14,10,2,1,11,4
2592,8,1,-14,10,3,-1,11,5
2593,8,1,-15,10,3,-4,11,5
2594,8,-1,-16,10,2,-8,10,5
2595,7,-2,-19,9,2,-16,10,4
2596,6,-3,-24,9,1,-27,8,3
2597,4,-4,-30,7,1,-42,7,2
2598,3,-5,-35,6,0,-55,6,1
2599,3,-5,-37,5,-1,-62,6,0
2600,3,-6,-35,4,-1,-61,6,-1
2601,4,-8,-29,3,-1,-51,5,-2
2602,5,-9,-20,3,-1,-37,5,-2
2603,6,-9,-11,4,0,-22,6,-2
2604,6,-9,-5,4,1,-11,6,-2
2605,6,-8,-2,5,1,-5,6,-1
2606,6,-7,-2,5,2,-6,5,-1
2607,5,-6,-3,4,2,-9,5,0
2608,5,-5,-6,4,2,-13,4,1
2609,5,-3,-8,4,3,-18,4,1
2610,5,-2,-11,4,3,-22,4,2
2611,4,-1,-12,3,3,-25,3,3
2612,4,-1,-13,3,2,-27,2,3
2613,3,0,-14,3,1,-27,2,3
2614,2,0,-14,3,0,-26,1,3
2615,1,0,-14,3,-2,-26,1,2
2616,1,0,-14,4,-4,-25,1,1
2617,1,-1,-14,5,-6,-26,1,1
2618,1,-1,-14,5,-7,-28,1,0
2619,1,-1,-13,5,-8,-29,0,-1
2620,1,-2,-13,4,-8,-28,-1,-1
2621,1,-2,-13,4,-8,-26,-2,-1
2622,1,-2,-13,3,-7,-23,-2,0
2623,1,-3,-13,3,-7,-22,-2,1
2624,1,-4,-13,4,-7,-21,-3,1
2625,1,-4,-13,4,-7,-21,-4,1
2626,0,-4,-12,3,-7,-21,-5,1
2627,-1,-3,-12,3,-7,-22,-6,1
2628,-1,-3,-12,2,-6,-22,-6,1
2629,-1,-3,-13,1,-6,-23,-6,0
2630,-1,-4,-13,0,-6,-24,-6,0
2631,-1,-4,-12,0,-5,-26,-6,-1
2632,-1,-5,-12,-1,-4,-30,-6,-2
2633,-2,-5,-12,-1,-3,-35,-7,-2
2634,-3,-6,-12,-2,-2,-39,-7,-3
2635,-4,-6,-12,-3,-2,-41,-8,-4
2636,-5,-6,-12,-4,-1,-42,-8,-4
2637,-5,-6,-12,-4,-1,-43,-8,-4
2638,-6,-6,-13,-4,-1,-45,-8,-4
2639,-5,-6,-14,-4,-1,-47,-8,-3
2640,-4,-6,-15,-2,-1,-49,-8,-2
2641,-3,-6,-16,-1,-1,-50,-6,-1
2642,-1,-5,-18,0,0,-50,-5,0
2643,1,-4,-20,1,0,-50,-3,0
2644,3,-3,-21,2,0,-50,-2,0
2645,4,-4,-22,3,1,-49,-1,0
2646,5,-5,-23,3,0,-47,0,0
2647,5,-6,-23,2,0,-43,0,0
2648,5,-7,-22,2,0,-39,0,-1
2649,4,-8,-20,2,-1,-35,-1,-1
2650,4,-8,-18,1,-1,-30,-1,-1
2651,3,-8,-17,1,-2,-25,-1,-1
2652,3,-8,-17,0,-2,-20,-1,-1
2653,3,-8,-16,0,-2,-15,-1,0
2654,3,-8,-16,-1,-1,-11,-1,0
2655,2,-8,-17,-2,-1,-9,-2,-1
2656,1,-8,-17,-3,-1,-8,-4,-2
2657,1,-9,-17,-4,-1,-7,-5,-2
2658,0,-9,-17,-6,-2,-4,-6,-3
2659,0,-10,-17,-7,-3,-1,-6,-4
2660,-1,-10,-17,-8,-4,2,-6,-4
2661,-2,-9,-17,-8,-5,4,-6,-4
2662,-2,-9,-16,-7,-5,5,-6,-4
2663,-3,-9,-17,-6,-4,5,-5,-4
2664,-2,-9,-18,-5,-4,6,-3,-4
2665,-1,-9,-19,-4,-3,8,-2,-4
2666,0,-9,-19,-3,-3,11,0,-3
2667,1,-9,-18,-2,-2,15,1,-3
2668,2,-8,-17,-2,-2,17,1,-2
2669,2,-7,-16,-2,-1,19,1,-1
2670,2,-6,-14,-2,-1,21,1,1
2671,1,-5,-13,-2,0,22,0,2
2672,1,-3,-11,-2,0,24,-1,4
2673,0,-1,-11,-2,-1,25,-2,5
2674,-1,0,-11,-2,-1,25,-3,6
2675,-2,0,-11,-1,-1,24,-3,5
2676,-2,0,-11,-2,-2,21,-3,5
2677,-2,-1,-10,-2,-2,18,-2,4
2678,-1,-2,-11,-2,-2,14,-2,3
2679,0,-3,-12,-3,-1,12,-2,2
2680,1,-4,-13,-3,-1,10,-2,2
2681,1,-4,-14,-3,0,11,-2,2
2682,2,-3,-14,-2,1,12,-1,3
2683,2,-2,-15,-2,1,13,-1,3
2684,2,-1,-16,-1,2,12,0,2
2685,2,1,-17,1,3,10,2,2
2686,3,1,-17,2,3,8,3,2
2687,3,1,-16,2,3,5,5,1
2688,4,0,-15,3,3,2,6,1
2689,4,-1,-13,3,3,-1,7,1
2690,5,-1,-11,2,3,-3,7,1
2691,5,-1,-11,2,3,-7,7,1
2692,4,0,-11,2,3,-10,6,1
2693,4,1,-11,1,4,-11,6,2
2694,3,3,-10,0,4,-11,5,2
2695,3,3,-8,-1,4,-9,4,3
2696,3,3,-7,-2,4,-7,3,3
2697,4,2,-6,-2,4,-7,2,2
2698,4,2,-5,-3,3,-6,2,2
2699,3,2,-4,-3,3,-4,1,1
2700,2,2,-3,-3,3,-3,1,1
2701,1,3,-3,-4,2,-1,1,1
2702,0,4,-3,-4,2,0,1,1
2703,0,4,-2,-4,3,-1,1,1
2704,0,5,-1,-3,3,-2,2,2
2705,1,6,1,-2,3,-4,2,3
2706,2,6,3,-1,3,-5,2,5
2707,2,6,5,-1,3,-5,1,6
2708,2,5,6,-1,3,-6,1,6
2709,1,4,6,-1,3,-7,-1,5
2710,-1,2,6,-1,2,-7,-2,4
2711,-1,1,6,-1,2,-9,-2,3
2712,-2,1,5,-1,2,-10,-3,2
2713,-2,-1,5,-2,1,-11,-3,0
2714,-2,-2,4,-2,1,-11,-4,-1
2715,-2,-3,4,-3,0,-12,-4,-2
2716,-2,-4,5,-4,-1,-12,-5,-2
2717,-3,-5,7,-4,-2,-13,-5,-2
2718,-2,-5,10,-5,-2,-13,-4,-2
2719,-1,-5,13,-4,-2,-14,-3,-2
2720,0,-5,15,-4,-2,-15,-2,-1
2721,1,-5,18,-3,-2,-13,-1,-1
2722,1,-5,19,-2,-1,-11,-1,-1
2723,1,-6,21,-1,-1,-9,-1,-1
2724,1,-7,22,-1,-1,-9,-1,-1
2725,1,-8,24,-1,0,-9,-2,-1
2726,1,-8,25,-2,1,-8,-3,-1
2727,0,-8,26,-3,2,-8,-3,-1
2728,-1,-8,26,-3,2,-10,-4,-1
2729,-2,-7,25,-4,3,-12,-4,-2
2730,-3,-7,24,-4,3,-13,-4,-2
2731,-4,-6,23,-4,3,-12,-3,-2
2732,-3,-6,21,-3,3,-12,-2,-1
2733,-2,-6,20,-3,3,-11,-1,-1
2734,-1,-6,19,-3,2,-10,0,0
2735,1,-7,19,-2,2,-8,0,0
2736,2,-7,20,-1,2,-7,0,0
2737,2,-7,19,1,1,-7,1,-1
2738,3,-7,18,2,1,-8,1,-2
2739,2,-7,16,3,1,-7,2,-2
2740,2,-6,15,4,0,-5,2,-2
2741,2,-6,14,5,-1,-2,2,-2
2742,2,-7,14,5,-1,-1,2,-2
2743,1,-7,13,5,-1,-1,2,-2
2744,1,-8,12,4,-1,-3,1,-1
2745,1,-8,10,2,-1,-5,0,-1
2746,1,-9,8,1,-1,-6,-1,-1
2747,2,-10,8,0,-1,-5,-2,0
2748,2,-11,8,-1,0,-3,-3,-1
2749,2,-11,7,-2,0,-1,-3,-1
2750,1,-11,6,-3,0,0,-2,-1
2751,1,-10,5,-4,-1,2,-2,-2
2752,0,-10,4,-5,-1,3,-2,-2
2753,-1,-10,2,-6,-1,4,-3,-3
2754,-1,-10,2,-6,-1,4,-3,-3
2755,-1,-10,2,-6,-1,2,-3,-3
2756,-2,-10,2,-6,-1,2,-2,-3
2757,-2,-9,1,-6,-1,2,-2,-3
2758,-1,-9,1,-4,-1,3,-1,-3
2759,-1,-8,-1,-3,-1,3,0,-3
2760,-1,-7,-2,-1,-2,2,1,-3
2761,0,-6,-4,1,-2,1,2,-3
2762,1,-5,-4,2,-2,1,3,-2
2763,2,-5,-5,3,-2,-1,4,-2
2764,3,-4,-7,4,-3,-3,6,-1
2765,5,-4,-9,5,-3,-7,7,0
2766,6,-3,-11,6,-2,-12,8,0
2767,7,-3,-12,8,-1,-17,9,0
2768,7,-3,-10,9,0,-20,10,0
2769,7,-4,-7,9,1,-20,10,0
2770,7,-4,-5,10,2,-19,10,-1
2771,7,-4,-4,10,2,-19,10,-1
2772,7,-3,-4,9,2,-17,10,0
2773,7,-3,-3,9,2,-16,9,0
2774,8,-2,-3,9,2,-15,9,0
2775,9,-2,-5,9,1,-17,9,0
2776,10,-2,-9,9,0,-23,8,0
2777,11,-1,-15,10,-1,-32,8,0
2778,11,-1,-21,10,-2,-41,9,0
2779,11,-1,-26,10,-3,-47,9,-1
2780,11,-1,-27,9,-3,-45,10,-1
2781,11,-1,-23,9,-3,-35,11,-1
2782,12,0,-17,8,-2,-19,12,-1
2783,12,1,-10,9,-1,-2,14,-1
2784,12,2,-5,9,0,11,16,0
2785,12,4,-4,10,0,17,18,0
2786,11,5,-5,11,0,16,18,0
2787,11,5,-8,12,-1,10,18,0
2788,10,6,-10,12,-1,4,17,0
2789,9,7,-11,12,-2,0,15,1
2790,8,8,-11,12,-2,-1,13,2
2791,7,8,-10,11,-2,1,12,3
2792,7,8,-8,11,-2,3,12,2
2793,6,9,-6,11,-2,5,11,2
2794,4,8,-3,10,-2,7,9,1
2795,2,8,-1,8,-2,9,8,0
2796,0,7,-1,7,-2,10,6,-1
2797,-3,7,-1,4,-2,11,3,-1
2798,-4,7,-2,2,-1,11,2,-2
2799,-5,7,-4,0,-1,11,0,-2
2800,-6,7,-5,-2,-1,11,-1,-2
2801,-6,7,-6,-2,0,11,-1,-2
2802,-6,7,-6,-3,0,13,-1,-2
2803,-7,6,-4,-3,0,14,-2,-1
2804,-7,6,-3,-3,0,16,-3,-1
2805,-8,6,-2,-3,0,16,-4,-1
2806,-9,5,-1,-4,0,16,-5,0
2807,-10,5,-1,-4,0,15,-6,0
2808,-10,4,-1,-4,1,14,-6,1
2809,-9,3,-1,-3,1,13,-6,1
2810,-8,2,-2,-2,2,12,-5,2
2811,-7,2,-3,-2,3,9,-5,2
2812,-7,2,-4,-1,3,7,-4,2
2813,-8,2,-5,-1,4,4,-3,2
2814,-8,2,-6,-1,4,2,-2,2
2815,-8,1,-8,-1,4,-1,-1,2
2816,-7,0,-9,-1,3,-5,-1,2
2817,-6,-1,-10,-1,3,-7,-1,2
2818,-5,-2,-11,-1,2,-8,-2,2
2819,-6,-2,-11,-1,2,-8,-3,2
2820,-7,-1,-10,-1,1,-8,-4,2
2821,-8,-1,-10,0,0,-8,-4,2
2822,-8,0,-9,1,-1,-8,-3,2
2823,-7,1,-9,1,-1,-9,-2,1
2824,-6,1,-10,2,-2,-12,-1,0
2825,-4,0,-11,2,-1,-17,0,-1
2826,-2,-1,-12,2,-1,-21,0,-1
2827,0,-2,-12,1,-1,-24,0,0
2828,1,-4,-12,-1,-2,-27,-1,0
2829,2,-5,-13,-2,-2,-31,-1,0
2830,2,-5,-13,-2,-2,-36,-2,0
2831,2,-5,-14,-3,-2,-42,-2,0
2832,2,-4,-14,-2,-2,-47,-2,1
2833,1,-3,-12,-1,-1,-49,-3,1
2834,1,-2,-10,-1,-1,-49,-2,1
2835,0,-1,-9,1,0,-48,-2,2
2836,-1,1,-8,1,1,-45,-2,2
2837,-1,2,-8,2,1,-45,-1,2
2838,-1,2,-9,2,2,-45,-1,2
2839,-1,2,-9,2,2,-45,-2,2
2840,0,2,-9,2,1,-44,-2,1
2841,0,1,-9,2,0,-43,-2,1
2842,1,0,-9,1,-1,-44,-2,1
2843,1,-1,-9,1,-2,-43,-2,1
2844,1,-1,-8,1,-2,-41,-2,1
2845,1,-1,-7,1,-2,-37,-2,0
2846,1,-1,-7,0,-2,-33,-3,0
2847,1,-1,-7,-1,-2,-30,-4,-1
2848,0,-1,-7,-3,-1,-30,-5,-1
2849,0,0,-8,-3,-1,-30,-5,0
2850,0,0,-10,-4,0,-31,-6,1
2851,0,1,-12,-4,0,-34,-6,2
2852,0,2,-15,-4,1,-37,-6,3
2853,1,2,-17,-4,2,-39,-5,4
2854,1,3,-17,-3,2,-39,-5,4
2855,1,3,-17,-3,3,-39,-4,4
2856,1,3,-16,-2,3,-39,-4,4
2857,2,3,-16,-2,3,-39,-3,4
2858,2,3,-15,-2,4,-39,-2,4
2859,2,3,-14,-2,4,-39,-1,4
2860,2,3,-13,-2,3,-39,0,4
2861,2,3,-13,-3,3,-38,0,4
2862,3,2,-14,-3,2,-37,1,3
2863,3,2,-14,-4,2,-36,1,3
2864,2,1,-14,-4,1,-33,0,3
2865,2,1,-13,-4,1,-30,0,3
2866,3,0,-12,-3,1,-28,0,3
2867,3,-1,-12,-2,2,-27,0,3
2868,5,-1,-13,-2,2,-27,1,2
2869,6,-2,-15,-2,3,-27,1,2
2870,6,-2,-18,-2,2,-28,2,1
2871,6,-3,-24,-2,2,-30,1,1
2872,5,-3,-31,-2,1,-32,1,2
2873,5,-3,-38,-2,1,-34,1,2
2874,5,-3,-44,-2,1,-35,1,2
2875,5,-2,-48,-1,1,-35,1,3
2876,6,-2,-50,0,1,-33,1,4
2877,7,-1,-50,1,1,-33,2,5
2878,8,1,-49,2,1,-33,3,6
2879,8,1,-48,3,1,-33,4,6
2880,9,2,-47,3,1,-31,5,7
2881,9,1,-43,3,2,-23,6,7
2882,9,1,-37,3,3,-11,7,7
2883,9,-1,-30,2,4,5,7,6
2884,9,-1,-23,2,4,20,8,5
2885,9,-1,-18,2,5,33,8,4
2886,9,0,-14,2,4,42,8,4
2887,8,1,-11,1,4,47,8,4
2888,8,1,-9,1,5,47,8,4
2889,7,2,-7,2,5,46,7,4
2890,6,1,-6,2,5,46,7,4
2891,7,-1,-4,2,4,45,6,3
2892,7,-3,-2,1,4,45,5,2
2893,8,-4,-2,0,3,43,5,1
2894,9,-5,-3,-1,3,42,5,0
2895,8,-4,-4,0,3,40,5,0
2896,7,-3,-5,1,3,39,6,0
2897,6,-1,-5,2,3,39,6,1
2898,4,1,-3,3,3,39,5,2
2899,2,1,-1,3,3,39,5,2
2900,0,1,2,2,3,40,4,2
2901,-1,0,3,2,3,40,3,2
2902,-1,-1,3,2,3,38,3,2
2903,-1,-1,1,2,3,35,3,2
2904,0,0,0,3,3,33,4,2
2905,1,1,0,2,3,33,4,2
2906,1,1,1,1,3,33,3,2
2907,0,0,1,-1,3,33,2,2
2908,-1,0,1,-2,3,33,-1,2
2909,-2,0,2,-4,3,34,-3,2
2910,-2,0,1,-5,3,34,-4,1
2911,-2,0,0,-5,3,32,-5,1
2912,-1,0,-2,-5,3,28,-6,1
2913,-1,-1,-3,-6,3,26,-6,1
2914,-1,-1,-2,-6,2,25,-5,-1
2915,-3,-1,-1,-7,1,26,-5,-2
2916,-4,-1,1,-8,1,28,-6,-2
2917,-6,0,3,-8,1,31,-6,-2
2918,-8,1,4,-9,2,33,-7,-2
2919,-9,1,4,-9,2,32,-7,-1
2920,-9,1,3,-8,3,31,-7,-1
2921,-8,0,1,-7,2,29,-7,-2
2922,-6,-1,0,-6,2,28,-5,-2
2923,-5,-2,-1,-4,2,26,-4,-3
2924,-3,-2,-2,-3,2,23,-3,-3
2925,-2,-1,-4,-1,2,19,-1,-3
2926,-2,0,-5,0,2,16,0,-2
2927,-2,1,-7,0,2,13,1,-2
2928,-1,1,-9,1,2,10,1,-1
2929,-1,1,-13,1,2,7,1,-1
2930,-1,1,-16,2,2,5,1,-1
2931,0,1,-18,1,2,4,1,-1
2932,1,0,-18,1,2,3,1,-2
2933,0,-1,-18,1,1,2,0,-2
2934,0,-2,-19,0,1,-1,-1,-3
2935,-1,-3,-21,0,0,-8,-3,-4
2936,0,-3,-24,0,-1,-19,-3,-4
2937,1,-4,-28,1,-2,-32,-2,-4
2938,2,-4,-31,2,-2,-44,0,-4
2939,3,-4,-34,3,-3,-54,2,-3
2940,5,-3,-34,4,-2,-60,4,-3
2941,5,-3,-34,4,-1,-61,5,-3
2942,5,-3,-32,5,2,-61,5,-3
2943,5,-2,-31,5,3,-60,4,-2
2944,5,-1,-31,6,5,-60,4,-2
2945,5,-1,-31,6,6,-60,4,-2
2946,4,0,-31,6,7,-58,4,-2
2947,3,0,-31,6,7,-56,5,-2
2948,2,0,-32,6,6,-55,5,-2
2949,2,0,-32,6,5,-55,5,-3
2950,2,-1,-33,6,4,-56,5,-4
2951,2,-1,-34,6,3,-56,4,-4
2952,1,-1,-34,5,2,-57,3,-4
2953,0,-1,-34,4,2,-57,2,-3
2954,0,-1,-34,3,2,-56,1,-3
2955,0,-1,-34,3,2,-54,0,-2
2956,0,-1,-35,3,2,-53,0,-2
2957,0,-1,-38,3,2,-56,1,-2
2958,-1,-1,-43,3,1,-64,1,-2
2959,-1,-1,-49,3,1,-76,2,-3
2960,-1,-1,-54,3,0,-86,1,-3
2961,-1,-1,-55,3,0,-90,1,-3
2962,0,-2,-52,2,-1,-84,0,-4
2963,0,-2,-45,1,-1,-71,-1,-4
2964,-1,-3,-36,1,-2,-52,-2,-5
2965,-2,-3,-28,0,-2,-33,-3,-5
2966,-3,-3,-24,-1,-3,-20,-4,-5
2967,-4,-4,-23,-2,-3,-14,-5,-6
2968,-4,-4,-24,-2,-3,-15,-6,-6
2969,-4,-5,-25,-3,-4,-18,-7,-7
2970,-4,-5,-27,-3,-3,-22,-7,-7
2971,-4,-5,-28,-3,-3,-23,-7,-7
2972,-4,-4,-29,-3,-2,-20,-7,-7
2973,-5,-3,-29,-3,-2,-13,-7,-7
2974,-6,-3,-28,-3,-1,-5,-6,-6
2975,-6,-3,-28,-3,-1,2,-6,-7
2976,-6,-3,-28,-3,-2,5,-6,-7
2977,-6,-3,-28,-3,-2,7,-5,-7
2978,-6,-3,-27,-3,-2,9,-5,-7
2979,-5,-4,-27,-3,-2,10,-4,-7
2980,-4,-4,-26,-3,-3,11,-4,-8
2981,-3,-5,-25,-3,-3,12,-3,-8
2982,-3,-5,-23,-3,-2,12,-3,-7
2983,-2,-6,-22,-2,-1,12,-3,-7
2984,-2,-6,-21,-1,-1,12,-2,-6
2985,-2,-6,-21,-1,0,11,-2,-5
2986,-2,-6,-21,-1,0,11,-2,-5
2987,-2,-6,-21,-1,0,11,-2,-5
2988,-2,-5,-22,-1,-1,11,-1,-5
2989,-3,-5,-23,-1,-1,11,-1,-6
2990,-5,-4,-24,-2,-2,11,-1,-6
2991,-6,-3,-24,-2,-2,10,-1,-6
2992,-6,-3,-24,-2,-2,11,-2,-7
2993,-5,-3,-23,-2,-2,11,-2,-6
2994,-4,-3,-23,-2,-2,11,-2,-6
2995,-3,-3,-22,-2,-1,11,-2,-5
2996,-3,-2,-22,-2,0,12,-2,-4
2997,-3,-2,-22,-2,1,13,-2,-4
2998,-3,-3,-22,-2,1,13,-3,-3
2999,-4,-3,-23,-3,1,12,-5,-3
3000,-4,-4,-23,-3,1,11,-7,-3
3001,-4,-5,-22,-4,2,9,-9,-3
3002,-4,-6,-21,-4,2,6,-10,-3
3003,-4,-6,-20,-4,3,4,-11,-3
3004,-4,-6,-19,-4,3,1,-11,-3
3005,-4,-6,-19,-4,2,-1,-11,-3
3006,-3,-6,-18,-5,2,-2,-11,-2
3007,-3,-6,-18,-5,3,-2,-11,-2
3008,-3,-6,-16,-6,3,-1,-11,-1
3009,-3,-5,-12,-7,3,1,-11,0
3010,-4,-5,-10,-8,3,3,-12,0
3011,-5,-6,-7,-10,2,5,-13,-1
3012,-6,-7,-6,-12,1,6,-15,-2
3013,-7,-8,-5,-13,-1,7,-16,-3
3014,-8,-9,-5,-14,-2,8,-17,-4
3015,-9,-9,-6,-14,-3,9,-17,-5
3016,-9,-10,-7,-14,-3,8,-17,-5
3017,-8,-9,-8,-14,-3,6,-16,-6
3018,-8,-9,-8,-14,-3,5,-14,-6
3019,-8,-8,-9,-14,-2,4,-13,-6
3020,-7,-7,-10,-14,-2,3,-12,-6
3021,-7,-7,-10,-14,-1,3,-10,-5
3022,-7,-6,-10,-14,-1,3,-9,-5
3023,-6,-6,-10,-13,0,5,-8,-4
3024,-6,-5,-9,-11,0,7,-7,-3
3025,-6,-4,-7,-10,1,7,-7,-2
3026,-6,-4,-7,-9,1,7,-7,-2
3027,-6,-3,-5,-9,2,8,-7,-1
3028,-6,-3,-4,-8,2,9,-8,-1
3029,-6,-4,-3,-9,2,11,-8,0
3030,-6,-4,-2,-9,1,12,-8,0
3031,-6,-4,-3,-9,1,12,-7,0
3032,-6,-3,-3,-9,1,13,-6,0
3033,-6,-3,-3,-9,1,13,-6,0
3034,-6,-4,-3,-10,1,13,-6,0
3035,-7,-4,-2,-10,1,14,-7,0
3036,-7,-5,-2,-10,1,14,-8,0
3037,-6,-5,-2,-10,1,14,-9,0
3038,-6,-5,-3,-9,1,13,-9,0
3039,-5,-4,-4,-7,1,12,-8,1
3040,-5,-3,-5,-6,1,11,-7,2
3041,-4,-3,-8,-6,0,10,-7,2
3042,-3,-2,-11,-6,0,10,-6,3
3043,-2,-2,-15,-5,1,10,-5,3
3044,-1,0,-19,-5,1,10,-4,3
3045,0,1,-21,-4,2,9,-2,3
3046,0,3,-23,-3,3,9,0,3
3047,1,4,-23,-1,4,9,1,4
3048,0,5,-23,0,4,10,3,4
3049,0,6,-23,0,4,10,3,3
3050,-1,7,-23,1,5,8,3,3
3051,-3,7,-24,0,5,5,2,2
3052,-4,8,-24,0,6,1,1,2
3053,-5,8,-25,0,6,-1,0,2
3054,-5,8,-25,0,6,0,0,2
3055,-4,8,-24,1,6,2,1,2
3056,-3,7,-23,2,5,4,2,2
3057,-1,6,-22,3,5,6,3,2
3058,1,5,-20,5,5,10,5,2
3059,3,5,-19,8,5,12,7,3
3060,6,5,-19,10,5,14,10,4
3061,8,5,-19,13,5,16,12,5
3062,11,5,-20,15,6,14,15,6
3063,14,5,-22,17,6,11,17,6
3064,16,5,-21,18,6,9,19,6
3065,18,4,-19,20,6,12,21,6
3066,19,4,-16,20,6,17,23,6
3067,21,4,-12,21,6,23,25,6
3068,21,3,-9,22,5,27,27,5
3069,22,3,-6,22,5,32,27,5
3070,22,2,-2,22,4,35,28,5
3071,22,2,2,22,4,37,27,4
3072,21,1,4,21,4,38,26,4
3073,22,1,5,21,4,37,25,4
3074,22,2,5,21,4,35,25,4
3075,23,2,3,21,3,32,25,4
3076,24,3,1,21,3,28,26,4
3077,23,3,-1,21,2,25,26,3
3078,22,3,-1,20,2,23,26,3
3079,20,3,-1,18,2,23,25,3
3080,17,2,1,16,2,23,23,3
3081,14,2,2,13,2,24,21,2
3082,11,2,2,11,1,24,18,2
3083,9,1,2,8,0,24,16,0
3084,6,-1,2,6,-2,24,13,-1
3085,5,-3,1,4,-2,22,10,-2
3086,3,-4,-1,2,-2,19,8,-3
3087,2,-5,-2,0,-2,15,6,-4
3088,1,-5,-2,-2,-1,12,4,-4
3089,0,-4,-2,-3,-1,11,3,-3
3090,-1,-4,-2,-3,-1,10,1,-2
3091,-2,-3,-1,-4,-1,11,0,-1
3092,-3,-3,-1,-4,-1,12,-1,-1
3093,-4,-3,-2,-5,-1,11,-2,-1
3094,-6,-4,-3,-6,-1,9,-3,-1
3095,-7,-4,-3,-8,-1,9,-5,-2
3096,-8,-4,-4,-9,-1,9,-6,-3
3097,-9,-4,-4,-10,-2,10,-7,-4
3098,-10,-4,-4,-11,-2,10,-9,-4
3099,-11,-3,-5,-12,-3,10,-10,-4
3100,-11,-3,-5,-12,-3,11,-10,-4
3101,-11,-2,-5,-12,-4,11,-10,-4
3102,-11,-2,-4,-12,-4,12,-10,-4
3103,-11,-2,-3,-12,-4,14,-9,-4
3104,-10,-2,-1,-12,-4,17,-8,-3
3105,-10,-2,0,-12,-3,19,-8,-3
3106,-11,-2,1,-12,-2,19,-9,-2
3107,-11,-1,2,-12,-2,17,-9,-2
3108,-10,-1,3,-12,-1,13,-9,-1
3109,-9,-1,4,-11,-1,10,-8,-1
3110,-8,-2,3,-10,-1,6,-7,-1
3111,-6,-4,2,-8,0,2,-7,-1
3112,-5,-5,-1,-7,0,-2,-6,-2
3113,-5,-5,-3,-6,0,-7,-5,-2
3114,-5,-6,-5,-5,1,-10,-5,-3
3115,-4,-7,-6,-5,1,-13,-5,-4
3116,-4,-8,-7,-5,1,-14,-6,-5
3117,-4,-9,-7,-6,1,-14,-6,-7
3118,-5,-9,-6,-7,0,-12,-7,-7
3119,-5,-8,-5,-8,0,-9,-7,-7
3120,-6,-7,-3,-9,-1,-5,-7,-7
3121,-7,-5,-2,-10,0,1,-7,-6
3122,-7,-4,-2,-10,0,5,-7,-5
3123,-7,-4,-3,-10,0,7,-7,-5
3124,-7,-4,-5,-9,0,8,-7,-5
3125,-6,-5,-6,-9,0,8,-6,-5
3126,-5,-5,-8,-9,-1,5,-6,-5
3127,-5,-5,-9,-9,-1,2,-5,-5
3128,-5,-4,-9,-10,-1,1,-5,-5
3129,-5,-4,-8,-10,-1,0,-5,-4
3130,-5,-3,-7,-10,-1,0,-5,-4
3131,-4,-2,-5,-10,-1,-1,-5,-4
3132,-4,-1,-4,-10,-1,-3,-5,-3
3133,-5,1,-4,-10,1,-6,-4,-2
3134,-5,2,-4,-9,2,-9,-3,-2
3135,-5,4,-4,-9,3,-11,-2,-1
3136,-5,4,-4,-8,4,-12,-1,-1
3137,-5,4,-4,-8,5,-13,-1,-2
3138,-5,4,-4,-7,5,-14,0,-2
3139,-5,5,-4,-6,5,-17,1,-1
3140,-5,5,-4,-5,5,-18,2,-1
3141,-4,6,-4,-4,6,-18,2,1
3142,-2,7,-5,-2,6,-18,3,2
3143,0,8,-5,-1,5,-18,2,2
3144,1,8,-8,0,5,-20,2,2
3145,2,7,-11,0,4,-25,2,2
3146,2,7,-14,1,3,-31,2,2
3147,1,6,-17,1,2,-37,1,2
3148,0,5,-20,1,1,-45,1,1
3149,-2,4,-23,0,1,-53,1,0
3150,-2,3,-25,-1,0,-60,1,-1
3151,-3,1,-24,-2,0,-59,1,-3
3152,-3,0,-21,-2,0,-52,1,-3
3153,-2,0,-16,-2,0,-40,2,-4
3154,-2,-1,-10,-2,-1,-26,3,-3
3155,-1,0,-6,-1,-2,-15,4,-3
3156,-1,1,-5,-1,-3,-10,4,-2
3157,-1,2,-7,0,-3,-13,5,-1
3158,-1,3,-8,1,-3,-20,5,-1
3159,-1,3,-8,1,-3,-27,5,0
3160,-2,3,-6,2,-2,-31,5,0
3161,-2,3,-4,2,0,-31,5,1
3162,-2,2,-1,2,1,-30,5,1
3163,-2,2,0,2,1,-28,5,1
3164,-3,2,1,2,1,-26,4,1
3165,-3,2,0,3,0,-24,3,0
3166,-3,3,-1,3,-1,-21,2,0
3167,-3,3,-4,3,-2,-19,1,-1
3168,-3,2,-8,4,-3,-16,0,-2
3169,-3,2,-12,4,-2,-13,0,-2
3170,-3,2,-17,3,-2,-12,-1,-2
3171,-4,2,-19,2,-2,-10,-1,-2
3172,-5,2,-22,1,-2,-9,-2,-3
3173,-5,2,-24,-1,-3,-9,-4,-3
3174,-5,3,-26,-2,-3,-10,-5,-3
3175,-5,3,-27,-4,-3,-10,-5,-3
3176,-5,3,-27,-5,-3,-9,-5,-3
3177,-5,2,-27,-5,-3,-8,-4,-3
3178,-5,2,-26,-6,-3,-8,-4,-3
3179,-6,3,-26,-6,-3,-8,-3,-2
3180,-6,3,-26,-6,-3,-10,-2,-2
3181,-5,3,-27,-5,-2,-11,-1,-2
3182,-4,3,-27,-4,-2,-12,0,-2
3183,-3,2,-27,-4,-1,-10,1,-3
3184,-2,0,-26,-3,-1,-9,1,-4
3185,-2,0,-24,-2,-1,-7,1,-5
3186,-3,0,-22,-2,-1,-5,0,-5
3187,-4,1,-19,-1,-2,-2,-1,-4
3188,-4,1,-14,-1,-2,2,-2,-3
3189,-4,1,-11,-1,-2,7,-3,-2
3190,-4,-1,-9,-1,-3,10,-4,-1
3191,-3,-2,-7,-1,-3,12,-5,0
3192,-2,-3,-5,-1,-3,12,-5,1
3193,-1,-3,-4,0,-3,11,-5,2
3194,0,-3,-4,0,-3,10,-5,3
3195,1,-2,-6,1,-3,8,-4,3
3196,3,-1,-7,2,-3,8,-2,3
3197,3,0,-10,2,-3,8,-1,3
3198,3,1,-11,2,-2,8,0,2
3199,2,2,-12,1,-2,7,-1,2
3200,0,2,-11,0,-2,4,-2,2
3201,-1,3,-10,-1,-1,1,-3,1
3202,-2,2,-9,-1,-1,-3,-3,1
3203,-1,2,-9,-1,-2,-6,-4,0
3204,-1,0,-9,-1,-3,-8,-4,-1
3205,-1,-1,-9,-1,-5,-8,-4,-2
3206,-1,-3,-9,-2,-6,-7,-5,-2
3207,-1,-4,-9,-2,-7,-4,-5,-2
3208,0,-4,-10,-3,-7,-1,-5,-2
3209,1,-4,-10,-3,-8,2,-4,-2
3210,2,-3,-9,-3,-8,4,-3,-2
3211,3,-3,-9,-3,-9,6,-2,-2
3212,3,-3,-8,-3,-9,9,-1,-3
3213,4,-3,-7,-3,-8,11,0,-2
3214,4,-3,-6,-3,-8,12,0,-2
3215,5,-4,-5,-2,-7,12,0,-1
3216,5,-5,-6,-2,-7,13,0,0
3217,5,-5,-6,-2,-7,13,0,0
3218,4,-6,-7,-3,-6,12,0,0
3219,3,-7,-7,-3,-6,11,0,-1
3220,2,-8,-7,-2,-6,9,1,-2
3221,2,-9,-7,-2,-6,6,1,-4
3222,1,-9,-6,-1,-7,4,1,-4
3223,1,-8,-5,1,-7,5,2,-4
3224,1,-7,-4,1,-6,7,1,-3
3225,1,-5,-4,1,-5,9,1,-2
3226,2,-4,-4,1,-4,10,0,0
3227,3,-3,-3,0,-3,11,-1,2
3228,3,-3,-3,0,-3,13,-1,2
3229,3,-3,-1,-1,-3,18,-2,3
3230,2,-3,0,-2,-4,22,-3,3
3231,1,-2,1,-2,-4,23,-4,2
3232,-1,-1,0,-2,-4,21,-4,2
3233,-2,1,0,-2,-4,19,-4,3
3234,-2,2,-1,-2,-3,16,-4,3
3235,-1,4,0,-1,-2,14,-3,2
3236,-1,4,1,-1,-1,13,-3,2
3237,0,3,1,-1,-1,11,-2,1
3238,1,2,0,-1,-1,10,-2,0
3239,2,1,0,-2,-2,9,-1,-1
3240,4,0,1,-2,-2,9,0,-2
3241,4,-1,2,-2,-2,10,1,-2
3242,4,-1,3,-2,-2,12,2,-2
3243,4,-2,3,-2,-2,13,2,-2
3244,4,-1,2,-2,-3,13,2,-2
3245,3,-1,1,-2,-3,13,3,-2
3246,3,1,0,-2,-3,13,3,-2
3247,2,2,1,-2,-3,15,3,-1
3248,1,3,2,-2,-1,16,3,1
3249,1,3,2,-2,1,17,2,2
3250,0,3,3,-2,2,17,2,2
3251,0,3,5,-2,2,17,2,3
3252,0,2,6,-2,2,19,2,2
3253,1,2,7,-2,1,23,2,2
3254,2,1,6,-2,1,25,3,2
3255,2,0,4,-3,1,25,3,1
3256,3,-2,2,-3,1,23,3,0
3257,4,-3,1,-4,1,22,3,-1
3258,5,-4,0,-4,1,21,3,-1
3259,6,-5,0,-3,1,21,4,-1
3260,7,-6,1,-2,1,20,5,-1
3261,8,-6,1,-2,1,20,5,0
3262,8,-6,1,-1,1,20,5,0
3263,8,-6,2,0,2,19,5,1
3264,8,-6,2,1,2,17,5,1
3265,7,-5,1,1,1,15,5,0
3266,6,-4,1,1,1,13,5,0
3267,6,-3,1,1,1,12,6,1
3268,6,-3,2,1,1,12,6,1
3269,6,-2,1,1,1,13,6,1
3270,7,-2,-1,0,0,12,5,2
3271,6,-2,-3,0,0,11,5,2
3272,5,-2,-6,-1,-1,9,5,2
3273,5,-1,-7,-1,-1,7,4,1
3274,4,-1,-6,-2,-1,6,4,1
3275,4,-1,-3,-2,-1,7,3,0
3276,4,-1,2,-1,-2,8,2,-1
3277,4,0,7,-2,-1,8,2,-1
3278,4,0,10,-2,-1,7,1,-2
3279,3,1,12,-2,-1,6,1,-2
3280,3,2,14,-2,0,6,0,-1
3281,2,2,15,-2,1,8,-1,-1
3282,1,2,15,-2,1,9,-2,0
3283,1,2,15,-2,1,11,-3,0
3284,0,2,14,-2,1,12,-3,0
3285,0,2,14,-2,1,12,-4,-1
3286,0,1,14,-3,1,11,-3,-1
3287,0,1,13,-3,1,9,-3,-1
3288,-1,1,13,-2,1,9,-3,-2
3289,-2,2,14,-2,1,12,-4,-2
3290,-3,3,14,-2,0,16,-4,-1
3291,-3,4,14,-2,-1,20,-4,-1
3292,-2,4,14,-2,-1,22,-4,1
3293,0,5,13,-1,0,22,-3,2
3294,1,6,11,0,1,21,-1,3
3295,2,7,9,1,2,19,1,3
3296,2,7,9,1,3,18,2,3
3297,1,7,9,0,3,19,2,3
3298,0,6,10,-1,2,21,2,2
3299,-1,6,12,-1,2,24,2,1
3300,-2,5,12,-1,1,26,3,0
3301,-2,5,11,-1,0,25,3,-1
3302,-2,4,9,-1,0,23,2,-2
3303,-1,4,8,0,0,19,1,-2
3304,-1,2,8,0,0,17,0,-2
3305,1,1,8,1,-1,15,-1,-2
3306,1,-2,7,1,-1,13,-2,-2
3307,2,-3,6,1,-1,12,-3,-2
3308,2,-5,5,1,-1,11,-3,-1
3309,3,-6,4,1,-1,10,-3,-1
3310,3,-6,3,1,0,7,-3,0
3311,2,-6,1,1,0,5,-3,0
3312,2,-7,-1,2,0,4,-3,-1
3313,2,-7,-3,2,0,3,-2,-2
3314,1,-7,-4,1,0,5,-2,-3
3315,1,-8,-4,0,-1,8,-1,-5
3316,1,-8,-2,-1,-1,12,-1,-5
3317,0,-7,0,-1,0,16,-1,-5
3318,0,-7,2,-1,0,17,0,-4
3319,-1,-6,3,-1,1,18,0,-4
3320,-1,-5,5,-1,2,20,-1,-3
3321,-2,-4,6,-1,3,23,-1,-2
3322,-2,-4,6,0,3,25,-2,-1
3323,-2,-3,6,0,4,25,-2,-1
3324,-1,-3,6,1,4,25,-2,0
3325,0,-2,7,1,4,25,-2,1
3326,0,-2,8,2,5,26,-2,2
3327,1,-1,8,2,5,26,-1,2
3328,0,0,8,1,6,26,-1,3
3329,0,0,7,1,6,27,-2,3
3330,0,0,6,1,6,29,-2,3
3331,-1,0,5,1,5,31,-3,3
3332,-2,1,4,0,5,33,-3,2
3333,-2,1,5,0,5,37,-3,1
3334,-3,2,6,0,5,41,-3,1
3335,-3,2,7,0,5,44,-3,1
3336,-3,3,9,0,6,45,-3,1
3337,-3,3,10,-1,6,45,-3,1
3338,-3,2,9,-1,6,41,-3,0
3339,-2,2,6,-2,5,37,-4,0
3340,-2,2,2,-2,4,34,-4,0
3341,-2,1,-2,-2,3,29,-5,-1
3342,-1,1,-7,-2,3,22,-4,0
3343,0,0,-11,-2,3,13,-3,0
3344,1,-1,-15,-2,3,6,-2,-1
3345,2,-2,-16,-1,3,2,0,-1
3346,2,-2,-14,-1,2,4,1,-2
3347,2,-2,-9,0,2,13,2,-3
3348,2,-1,-2,2,1,27,3,-3
3349,1,0,7,3,2,43,3,-2
3350,1,1,16,5,3,57,4,-1
3351,1,1,21,6,3,67,4,0
3352,2,1,23,6,4,72,4,0
3353,2,2,21,7,4,71,4,1
3354,2,2,17,7,4,67,3,1
3355,1,3,13,7,5,65,2,1
3356,0,4,12,6,5,64,2,2
3357,0,4,12,5,6,66,1,2
3358,-1,5,13,4,6,68,1,2
3359,-1,4,13,4,5,69,1,3
3360,-1,4,13,3,5,69,1,3
3361,-1,4,13,3,4,67,1,3
3362,-1,4,14,4,3,66,1,3
3363,-1,4,16,4,3,66,1,3
3364,0,4,18,5,3,66,1,3
3365,1,4,19,5,2,66,1,3
3366,2,4,20,5,2,66,1,2
3367,2,3,19,5,2,64,1,2
3368,3,3,19,5,3,63,1,1
3369,4,2,18,5,3,63,1,1
3370,4,1,17,6,2,62,2,0
3371,4,-1,16,6,2,62,2,0
3372,4,-1,15,7,1,62,2,0
3373,4,-1,12,7,1,62,2,0
3374,4,-1,9,7,1,61,2,0
3375,4,0,7,8,1,61,3,1
3376,4,1,6,8,1,64,4,1
3377,3,2,6,9,1,67,6,1
3378,3,2,7,9,0,71,7,0
3379,2,1,7,8,0,73,8,-1
3380,2,0,8,8,-1,73,8,-2
3381,2,-2,7,7,-1,74,7,-3
3382,1,-3,7,5,-2,74,6,-5
3383,0,-4,8,4,-2,76,5,-6
3384,-2,-4,8,1,-3,79,3,-6
3385,-4,-4,9,-1,-3,83,1,-6
3386,-5,-3,11,-3,-3,89,-1,-5
3387,-6,-3,14,-4,-3,100,-2,-4
3388,-6,-2,21,-4,-3,120,-3,-2
3389,-6,-2,30,-4,-2,148,-3,-1
3390,-5,-2,41,-4,0,181,-3,0
3391,-5,-2,52,-4,1,213,-4,1
3392,-5,-2,60,-5,2,238,-5,2
3393,-5,-2,65,-6,2,253,-6,2
3394,-4,-2,67,-5,2,259,-6,3
3395,-2,-1,68,-3,3,260,-6,4
3396,0,-1,67,-1,3,260,-5,5
3397,2,0,66,0,3,258,-4,6
3398,4,0,64,1,3,255,-3,6
3399,5,0,62,1,3,251,-4,5
3400,4,-1,60,0,4,246,-4,5
3401,4,-1,58,0,4,242,-5,5
3402,5,-1,57,1,4,238,-5,5
3403,5,-2,54,1,4,233,-4,4
3404,5,-2,51,1,3,227,-4,3
3405,5,-3,47,0,3,218,-4,3
3406,5,-3,42,-1,2,207,-3,2
3407,5,-3,37,-1,1,195,-2,3
3408,4,-3,33,-2,1,182,-2,3
3409,4,-2,31,-2,0,171,-1,3
3410,4,-1,30,-3,0,163,-2,3
3411,4,-1,28,-4,-1,157,-2,3
3412,4,-1,27,-5,-1,153,-3,2
3413,4,0,25,-5,-1,148,-3,1
3414,4,0,22,-5,-1,144,-3,0
3415,4,0,20,-5,-1,139,-3,0
3416,2,1,20,-5,-1,132,-3,1
3417,1,1,19,-6,-1,126,-4,0
3418,-1,1,18,-6,0,120,-5,0
3419,-2,2,17,-6,0,113,-5,-1
3420,-2,2,15,-6,0,107,-4,-2
3421,-2,2,13,-5,-1,103,-3,-2
3422,-1,2,12,-4,-2,99,-2,-2
3423,-1,2,11,-4,-3,96,-1,-2
3424,-2,2,9,-4,-4,91,-1,-2
3425,-2,2,7,-4,-4,86,-1,-2
3426,-3,3,6,-4,-4,81,-1,-1
3427,-4,3,7,-3,-4,77,0,-1
3428,-4,3,8,-3,-3,75,0,-1
3429,-3,2,9,-2,-2,73,1,0
3430,-3,2,10,-1,-1,71,1,0
3431,-2,2,9,0,1,68,2,0
3432,-1,2,9,1,1,66,3,1
3433,0,2,7,1,2,64,3,1
3434,1,1,6,2,1,61,3,1
3435,2,0,5,2,1,57,3,1
3436,3,-1,4,1,0,55,3,1
3437,3,-2,3,1,-1,53,2,1
3438,4,-2,2,0,-2,51,2,1
3439,4,-2,0,-1,-2,49,2,1
3440,3,-1,-1,-1,-2,46,1,1
3441,2,1,-2,-1,-2,43,1,2
3442,2,2,-3,-2,-1,40,0,2
3443,1,3,-4,-2,-1,38,0,2
3444,0,3,-3,-3,-1,37,0,2
3445,-1,3,-2,-4,-2,35,-1,2
3446,-2,3,-2,-4,-3,33,-2,1
3447,-3,3,-3,-4,-3,28,-3,1
3448,-4,2,-5,-4,-3,25,-4,1
3449,-5,2,-6,-3,-3,23,-4,0
3450,-5,2,-7,-3,-2,22,-4,0
3451,-5,1,-7,-3,-1,20,-3,0
3452,-4,1,-7,-3,0,18,-2,-1
3453,-4,0,-7,-3,0,15,-2,-1
3454,-4,-1,-8,-3,1,12,-1,-1
3455,-4,-1,-9,-2,1,9,0,-2
3456,-4,-1,-12,-1,1,6,1,-2
3457,-3,-1,-14,0,2,4,3,-1
3458,-2,0,-14,1,2,5,5,-1
3459,-1,1,-13,3,3,6,6,0
3460,0,1,-11,3,3,8,7,1
3461,1,1,-11,3,3,8,7,1
3462,1,1,-10,2,3,8,6,1
3463,1,1,-10,1,3,9,5,1
3464,1,1,-11,0,4,10,4,1
3465,1,1,-12,-1,5,10,3,2
3466,1,1,-13,-1,6,9,4,2
3467,2,1,-14,0,6,7,5,1
3468,2,1,-16,1,5,2,5,1
3469,2,1,-18,2,4,-3,6,1
3470,0,1,-21,2,3,-9,5,0
3471,-1,1,-23,1,1,-14,5,-1
3472,-3,1,-24,0,0,-16,3,-1
3473,-5,1,-23,-1,-1,-14,2,-1
3474,-6,0,-23,-2,-2,-13,1,-1
3475,-6,0,-24,-3,-2,-13,0,-1
3476,-6,0,-25,-3,-2,-14,-1,-1
3477,-5,0,-25,-2,-2,-13,-1,-1
3478,-5,1,-25,-2,-2,-11,-1,-1
3479,-5,1,-24,-2,-2,-10,-1,-2
3480,-6,1,-23,-2,-2,-8,-1,-2
3481,-7,0,-21,-3,-2,-6,-2,-3
3482,-8,-1,-19,-3,-1,-5,-3,-3
3483,-8,-1,-19,-4,-1,-6,-4,-3
3484,-9,-2,-19,-5,-1,-8,-4,-3
3485,-9,-2,-21,-6,-2,-12,-4,-3
3486,-8,-3,-23,-6,-2,-19,-4,-3
3487,-6,-4,-27,-5,-2,-28,-4,-3
3488,-4,-5,-31,-4,-1,-38,-3,-4
3489,-2,-6,-34,-3,-1,-45,-3,-4
3490,-1,-6,-35,-2,-1,-48,-2,-3
3491,0,-5,-36,-2,-1,-49,-3,-3
3492,1,-5,-36,-3,0,-49,-3,-3
3493,1,-4,-36,-3,1,-49,-4,-3
3494,2,-2,-37,-3,1,-49,-4,-2
3495,3,-2,-38,-3,1,-51,-4,-2
3496,4,-1,-39,-2,1,-53,-3,-2
3497,5,-1,-40,-1,0,-56,-2,-2
3498,6,-1,-42,1,-1,-59,-1,-1
3499,6,-1,-43,2,-1,-63,-1,-1
3500,6,-1,-45,3,-2,-68,-1,0
3501,5,0,-45,4,-2,-72,-1,1
3502,4,1,-45,4,-2,-75,-1,1
3503,4,1,-45,4,-2,-76,-1,2
3504,4,1,-43,4,-2,-74,-1,2
3505,4,1,-41,4,-2,-71,-1,2
3506,4,0,-40,4,-2,-68,-1,2
3507,4,0,-40,4,-1,-67,-1,2
3508,5,-1,-40,4,-1,-70,0,2
3509,6,-1,-41,5,-1,-74,1,3
3510,7,0,-42,7,0,-80,1,3
3511,6,0,-44,7,1,-85,1,4
3512,6,0,-44,8,1,-89,1,4
3513,5,0,-43,7,2,-90,1,3
3514,5,0,-41,7,2,-88,1,3
3515,5,-1,-39,6,3,-84,1,3
3516,6,-1,-37,6,3,-80,0,3
3517,7,-1,-36,6,4,-76,0,4
3518,7,0,-36,6,4,-74,-1,4
3519,6,1,-37,5,3,-73,-1,3
3520,5,1,-38,5,3,-74,-1,3
3521,4,2,-39,5,2,-77,-1,2
3522,4,2,-41,5,2,-81,-1,2
3523,4,2,-43,5,2,-86,0,1
3524,4,2,-44,6,2,-90,0,0
3525,5,1,-43,6,3,-91,0,0
3526,7,0,-41,6,3,-89,0,0
3527,8,0,-39,7,4,-85,0,1
3528,8,0,-38,7,5,-84,0,2
3529,8,1,-38,8,6,-85,0,3
3530,7,1,-40,8,7,-88,0,4
3531,7,1,-43,8,7,-92,1,4
3532,7,1,-47,8,7,-96,3,3
3533,6,1,-48,8,7,-99,4,3
3534,6,0,-47,7,7,-98,5,2
3535,5,0,-42,6,7,-88,6,2
3536,5,1,-33,6,8,-67,7,2
3537,6,2,-19,7,8,-35,8,2
3538,7,2,-4,8,8,3,9,3
3539,8,3,9,10,7,39,10,4
3540,8,3,17,11,7,66,11,4
3541,8,3,20,12,7,79,12,3
3542,8,3,17,12,6,80,11,3
3543,7,3,12,11,6,71,10,2
3544,6,3,5,10,5,56,9,1
3545,5,3,-3,8,5,41,8,0
3546,4,2,-8,7,4,26,7,0
3547,3,2,-12,7,3,17,6,0
3548,3,2,-13,7,3,14,6,0
3549,3,1,-12,7,2,17,6,1
3550,4,0,-11,6,2,23,6,1
3551,4,-1,-12,6,3,25,5,2
3552,5,-1,-14,5,3,24,5,2
3553,6,-1,-18,5,4,20,5,3
3554,6,-2,-22,4,5,14,5,3
3555,7,-2,-26,4,4,7,5,3
3556,7,-2,-30,3,4,-1,5,2
3557,6,-3,-32,3,3,-11,4,2
3558,5,-4,-33,3,4,-20,4,2
3559,5,-4,-34,3,4,-28,4,2
3560,4,-4,-35,3,5,-34,5,2
3561,4,-4,-36,3,5,-39,4,2
3562,5,-4,-38,3,5,-44,4,2
3563,6,-4,-39,3,4,-50,3,2
3564,6,-5,-39,3,3,-54,3,1
3565,7,-5,-38,3,3,-56,3,0
3566,7,-4,-37,3,2,-58,3,-1
3567,7,-4,-37,3,1,-60,3,-1
3568,7,-4,-39,3,1,-63,3,-1
3569,7,-4,-40,3,0,-64,3,-1
3570,7,-5,-40,3,0,-64,3,-1
3571,7,-5,-40,3,1,-64,3,-1
3572,7,-5,-39,2,1,-62,3,0
3573,7,-5,-38,2,1,-60,1,0
3574,7,-5,-37,1,0,-59,0,0
3575,6,-4,-37,1,-1,-59,-1,1
3576,5,-4,-37,1,-1,-58,-2,1
3577,5,-3,-38,1,-1,-58,-2,1
3578,5,-3,-38,1,-1,-57,-2,2
3579,5,-2,-39,0,0,-57,-2,2
3580,5,-2,-38,0,0,-57,-1,3
3581,4,-2,-36,-1,0,-55,-2,3
3582,4,-2,-34,-2,0,-52,-3,2
3583,3,-3,-32,-4,0,-50,-3,2
3584,4,-3,-31,-4,0,-47,-3,2
3585,5,-2,-30,-4,0,-45,-2,2
3586,5,-2,-29,-4,1,-43,0,2
3587,6,-1,-30,-2,2,-43,2,2
3588,7,-1,-30,-1,2,-42,3,2
3589,8,-2,-28,0,2,-40,4,1
3590,9,-2,-27,1,1,-37,4,1
3591,9,-3,-26,1,1,-34,4,1
3592,8,-4,-24,0,1,-32,4,1
3593,8,-4,-22,0,2,-30,4,2
3594,8,-4,-19,0,2,-29,5,2
3595,7,-5,-15,0,2,-27,5,2
3596,6,-5,-10,-1,2,-23,5,1
3597,6,-6,-7,-1,2,-19,5,1
3598,6,-6,-6,-1,1,-18,5,0
3599,7,-7,-5,-1,1,-18,5,0
3600,7,-7,-4,-1,1,-17,4,0
3601,7,-7,-2,-1,0,-14,4,0
3602,6,-6,-2,-2,0,-13,3,0
3603,6,-6,-2,-3,0,-13,2,0
3604,6,-5,-3,-5,0,-13,2,0
3605,7,-5,-3,-6,0,-12,1,-1
3606,7,-6,-3,-6,0,-11,1,-2
3607,7,-6,-3,-7,-1,-11,1,-3
3608,6,-6,-3,-7,-2,-11,1,-4
3609,6,-6,-3,-7,-3,-12,0,-4
3610,5,-7,-3,-6,-3,-12,0,-4
3611,5,-7,-2,-6,-4,-11,-1,-3
3612,5,-8,-1,-6,-3,-9,-2,-2
3613,5,-8,2,-6,-3,-6,-2,-1
3614,5,-8,4,-6,-3,-4,-3,-1
3615,5,-8,4,-5,-4,-5,-2,-1
3616,7,-9,5,-4,-4,-5,-1,-1
3617,8,-9,4,-2,-3,-6,1,-1
3618,10,-9,3,-1,-3,-7,3,0
3619,11,-9,0,1,-3,-11,4,0
3620,11,-8,-3,2,-2,-16,4,0
3621,11,-8,-4,2,-2,-19,4,0
3622,10,-7,-3,1,-2,-21,3,1
3623,9,-7,-1,0,-1,-21,3,1
3624,8,-6,2,0,-1,-19,2,1
3625,8,-5,4,0,-1,-16,2,1
3626,7,-4,4,-1,-1,-14,2,1
3627,7,-3,4,-1,-2,-12,2,1
3628,7,-3,4,-2,-2,-8,2,1
3629,6,-3,5,-3,-2,-5,2,0
3630,6,-3,6,-4,-2,-2,2,0
3631,6,-3,7,-5,-2,-1,1,0
3632,7,-4,7,-6,-1,-1,0,0
3633,7,-4,6,-6,-1,-2,0,0
3634,8,-5,5,-7,-1,-2,-1,-1
3635,9,-5,4,-8,0,-3,-1,-1
3636,9,-5,4,-8,0,-3,-1,-1
3637,9,-5,4,-8,0,-4,-2,-1
3638,8,-5,3,-8,0,-3,-2,-1
3639,8,-5,3,-8,0,-1,-3,-1
3640,8,-5,4,-8,-1,4,-3,-1
3641,8,-5,5,-8,-1,10,-4,-1
3642,8,-5,6,-8,-1,15,-4,-1
3643,8,-5,7,-8,-2,18,-4,-1
3644,8,-5,6,-7,-3,18,-3,-2
3645,9,-5,5,-7,-4,16,-2,-2
3646,9,-5,4,-7,-5,14,-2,-2
3647,9,-5,3,-7,-5,13,-3,-2
3648,8,-4,2,-7,-5,12,-3,-2
3649,7,-4,1,-7,-4,10,-4,-2
3650,7,-3,0,-7,-2,8,-4,-1
3651,6,-2,1,-7,-1,7,-4,-1
3652,7,-2,2,-6,-1,8,-4,0
3653,8,-2,2,-5,-1,10,-3,1
3654,10,-3,1,-4,-1,9,-2,2
3655,12,-3,-2,-3,-1,6,-1,2
3656,13,-2,-4,-1,-2,4,0,2
3657,15,-2,-4,0,-2,4,2,2
3658,16,-2,-5,1,-2,5,3,2
3659,17,-1,-4,2,-2,5,4,3
3660,18,-2,-4,3,-1,4,4,3
3661,18,-2,-4,3,0,2,4,3
3662,19,-1,-5,3,1,-1,4,3
3663,19,-1,-6,3,1,-4,4,4
3664,19,0,-6,3,2,-5,4,4
3665,18,1,-6,3,2,-6,4,5
3666,17,2,-7,4,2,-10,3,5
3667,16,3,-8,4,2,-14,3,6
3668,14,4,-8,4,1,-16,2,6
3669,13,5,-7,3,0,-14,2,6
3670,12,5,-6,2,-1,-12,0,6
3671,12,5,-5,1,-1,-10,-1,6
3672,11,5,-4,0,-1,-9,-2,6
3673,11,5,-3,-1,-2,-7,-2,6
3674,11,5,-2,-1,-2,-6,-2,6
3675,12,4,-2,-1,-2,-7,-2,6
3676,12,3,-4,-1,-2,-10,-1,6
3677,13,2,-6,-2,-3,-15,-1,6
3678,12,2,-8,-2,-3,-19,-1,5
3679,12,2,-10,-2,-4,-22,-2,5
3680,12,2,-10,-2,-4,-22,-2,4
3681,12,3,-9,-2,-4,-21,-2,4
3682,12,3,-9,-1,-4,-20,-1,4
3683,13,3,-8,-1,-3,-20,-1,4
3684,12,4,-8,-1,-2,-20,-1,4
3685,12,4,-8,-1,-1,-21,-2,4
3686,11,3,-8,-2,0,-21,-2,4
3687,11,3,-6,-2,1,-19,-2,4
3688,10,2,-5,-2,2,-18,-1,4
3689,11,2,-6,-2,2,-17,0,3
3690,12,1,-7,-1,3,-20,1,3
3691,14,1,-8,0,3,-23,2,2
3692,16,0,-9,1,4,-26,3,3
3693,17,0,-9,3,4,-28,3,3
3694,18,0,-8,4,4,-29,3,4
3695,17,-1,-8,4,4,-30,3,4
3696,16,-1,-8,4,3,-29,2,4
3697,14,-1,-7,3,2,-28,1,3
3698,12,-1,-6,2,2,-26,0,3
3699,11,-1,-5,1,2,-24,0,2
3700,11,-1,-5,1,1,-21,0,2
3701,12,-1,-4,1,0,-17,0,1
3702,12,-1,-2,1,-1,-13,0,1
3703,13,-1,-1,2,-2,-10,1,1
3704,13,-1,2,2,-2,-8,0,2
3705,13,-1,3,2,-2,-7,0,2
3706,14,-1,4,1,-2,-6,0,2
3707,14,-1,3,1,-1,-6,-1,2
3708,14,-1,2,2,-1,-6,-1,2
3709,14,0,1,2,-1,-6,-1,1
3710,14,0,0,2,-2,-6,-1,1
3711,13,-1,-1,2,-2,-5,-2,1
3712,12,-1,-1,2,-2,-4,-3,1
3713,11,-1,-2,2,-2,-2,-3,1
3714,11,-1,-2,1,-2,0,-3,1
3715,11,-1,-2,1,-2,1,-3,0
3716,11,-1,-1,2,-2,1,-2,-1
3717,11,-1,1,3,-2,1,0,-1
3718,11,-2,2,3,-2,1,1,-2
3719,11,-2,3,3,-2,1,1,-3
3720,11,-3,3,3,-2,1,2,-4
3721,11,-4,2,3,-2,-1,2,-4
3722,11,-5,0,2,-2,-4,2,-4
3723,11,-5,-3,2,-3,-8,1,-4
3724,11,-5,-5,2,-4,-13,1,-3
3725,10,-6,-8,2,-5,-21,0,-3
3726,10,-6,-12,2,-5,-30,0,-3
3727,10,-5,-14,1,-6,-37,0,-3
3728,11,-5,-14,1,-6,-37,0,-3
3729,12,-5,-11,2,-5,-29,0,-2
3730,13,-4,-6,2,-4,-16,0,-1
3731,14,-4,0,2,-3,-2,-1,-1
3732,14,-3,4,2,-2,10,-1,0
3733,14,-3,5,2,-1,16,-1,1
3734,13,-2,4,2,1,17,-1,1
3735,13,-1,1,3,2,13,-1,2
3736,13,0,-3,3,2,9,-1,1
3737,14,0,-4,4,2,7,-1,1
3738,15,-1,-4,5,1,5,-1,1
3739,17,-2,-3,6,0,5,0,1
3740,18,-2,-1,7,-1,7,1,2
3741,19,-2,-1,7,-1,8,2,2
3742,18,-1,0,8,-1,9,2,3
3743,17,0,1,7,-1,9,3,3
3744,15,1,2,7,0,8,3,3
3745,14,1,4,7,0,7,3,3
3746,14,0,5,7,-1,6,3,2
3747,14,-1,6,7,-1,6,3,2
3748,14,-2,8,7,-1,5,3,1
3749,13,-2,9,6,-1,6,2,1
3750,12,-2,10,5,-2,6,3,1
3751,11,-1,12,5,-2,7,3,1
3752,11,0,15,5,-2,8,4,2
3753,12,1,18,5,-2,7,4,3
3754,13,1,21,5,-2,8,5,4
3755,14,1,24,6,-2,9,5,4
3756,15,2,25,7,-2,9,6,5
3757,16,2,25,8,-2,8,8,5
3758,17,4,22,9,-2,4,9,5
3759,17,4,19,10,-2,1,10,5
3760,16,5,16,10,-2,-1,11,4
3761,16,4,14,9,-2,-2,10,3
3762,14,3,14,8,-3,-2,9,2
3763,13,2,15,7,-3,0,8,1
3764,11,1,17,6,-3,3,6,0
3765,10,1,18,6,-4,5,5,0
3766,9,1,17,5,-4,5,5,0
3767,9,1,15,5,-4,4,4,0
3768,9,1,12,5,-5,2,4,0
3769,9,1,10,5,-6,-1,4,0
3770,9,2,8,4,-6,-3,4,0
3771,9,2,8,3,-5,-4,4,-1
3772,8,2,8,2,-5,-5,4,-1
3773,7,2,8,1,-4,-5,3,-1
3774,7,1,10,0,-3,-5,3,-1
3775,7,1,11,0,-2,-4,2,-1
3776,7,1,11,-1,-2,-3,2,-2
3777,7,0,10,-1,-1,-3,2,-2
3778,7,0,9,-1,-1,-2,2,-3
3779,8,-1,8,-1,-2,1,2,-3
3780,9,-2,7,0,-3,6,2,-3
3781,10,-3,7,0,-4,10,2,-3
3782,10,-4,6,0,-4,12,3,-3
3783,10,-5,5,0,-5,10,3,-4
3784,10,-6,5,-1,-6,8,2,-4
3785,8,-7,5,-1,-6,7,2,-4
3786,6,-6,6,-2,-6,8,1,-4
3787,4,-5,7,-2,-6,9,0,-3
3788,3,-4,9,-2,-5,11,0,-3
3789,1,-3,10,-2,-5,11,0,-2
3790,0,-1,10,-2,-5,11,-1,-2
3791,-1,-1,10,-2,-4,10,-1,-1
3792,-1,-1,11,-3,-4,12,-1,-2
3793,-1,-2,12,-4,-4,15,-2,-2
3794,-1,-2,12,-4,-4,18,-3,-2
3795,-1,-3,13,-4,-5,21,-3,-2
3796,-1,-3,13,-5,-5,24,-4,-3
3797,-1,-3,13,-5,-6,27,-4,-4
3798,-1,-2,13,-5,-6,28,-4,-4
3799,-1,-2,12,-5,-6,27,-4,-4
3800,-1,-2,11,-5,-6,25,-4,-4
3801,-1,-2,11,-5,-6,24,-3,-4
3802,0,-1,12,-5,-6,24,-2,-3
3803,1,-1,12,-5,-6,25,-2,-2
3804,1,-1,12,-4,-6,25,-2,-2
3805,2,-1,12,-4,-6,26,-1,0
3806,3,1,12,-3,-5,26,-1,1
3807,3,2,13,-2,-3,27,0,3
3808,2,4,15,-1,-1,27,0,4
3809,1,5,16,-1,0,25,0,5
3810,0,5,18,-2,1,23,-1,5
3811,0,5,19,-2,1,21,-2,5
3812,0,4,19,-3,1,19,-2,4
3813,0,3,17,-4,0,18,-1,3
3814,0,3,14,-4,0,16,-1,3
3815,0,4,13,-3,1,13,0,3
3816,0,6,12,-2,1,12,1,4
3817,1,8,13,0,2,12,1,4
3818,1,9,14,1,3,13,1,5
3819,1,9,14,1,3,12,1,5
3820,1,9,14,1,3,12,1,5
3821,1,8,13,0,2,12,1,4
3822,1,7,12,-1,1,14,1,3
3823,1,6,11,-1,0,16,1,2
3824,1,5,10,-1,-1,19,1,2
3825,2,5,10,-1,-2,20,1,1
3826,3,4,11,-1,-2,20,1,1
3827,3,3,11,-1,-2,17,1,1
3828,4,1,11,-2,-3,14,1,1
3829,4,0,10,-2,-3,12,1,1
3830,4,-1,10,-2,-4,10,1,1
3831,4,-1,10,-3,-5,9,0,0
3832,2,-2,10,-3,-6,9,-1,0
3833,1,-2,11,-3,-7,8,-1,-1
3834,-1,-3,11,-4,-7,9,-2,-2
3835,-2,-3,11,-4,-8,10,-2,-2
3836,-3,-2,10,-4,-8,10,-2,-2
3837,-3,-1,9,-4,-7,10,-2,-2
3838,-4,0,8,-4,-6,11,-3,-2
3839,-5,1,8,-4,-5,11,-4,-1
3840,-7,2,8,-5,-3,12,-6,-1
3841,-7,2,7,-6,-2,13,-7,0
3842,-5,3,6,-6,-2,14,-7,0
3843,-3,4,4,-5,-2,15,-6,0
3844,0,5,1,-5,-2,15,-4,0
3845,3,4,-2,-5,-3,15,-3,-1
3846,5,4,-3,-5,-3,16,-2,-1
3847,6,4,-3,-5,-3,18,-2,-2
3848,6,4,-3,-6,-3,20,-1,-2
3849,6,5,-1,-5,-2,22,1,-2
3850,6,6,0,-4,-2,23,3,-2
3851,6,5,2,-3,-1,24,5,-1
3852,6,4,3,-2,-1,24,5,-1
3853,5,3,5,-2,-1,23,5,-1
3854,4,2,5,-1,-1,20,4,-1
3855,4,1,5,1,-1,17,4,-1
3856,4,1,5,3,-1,13,5,0
3857,5,2,6,5,-1,10,6,1
3858,5,2,6,7,-1,9,6,2
3859,6,2,6,8,-1,9,7,2
3860,6,2,6,8,0,9,6,3
3861,5,2,6,8,1,10,5,3
3862,4,3,6,8,2,11,5,3
3863,3,4,7,7,3,11,4,3
3864,2,5,7,6,4,12,4,4
3865,2,6,8,6,4,14,5,4
3866,2,7,9,6,4,17,6,4
3867,2,8,10,5,4,20,7,4
3868,3,8,12,4,4,22,7,4
3869,3,7,14,3,4,24,7,2
3870,3,5,17,2,3,25,5,1
3871,2,3,19,0,2,26,4,-1
3872,2,1,21,-2,2,26,3,-3
3873,1,-1,23,-3,1,26,2,-4
3874,1,-2,24,-4,0,25,2,-5
3875,0,-3,24,-5,-1,24,2,-6
3876,0,-4,23,-5,-1,21,1,-6
3877,-1,-4,21,-6,-1,18,1,-7
3878,-1,-4,19,-6,-1,15,0,-7
3879,-1,-4,18,-6,-1,12,-1,-7
3880,0,-3,16,-6,-1,9,-1,-7
3881,1,-3,15,-5,0,6,-2,-6
3882,2,-3,13,-5,1,2,-2,-6
3883,2,-4,12,-4,1,-2,-2,-5
3884,3,-4,10,-2,2,-6,-2,-4
3885,3,-3,7,-1,2,-11,-1,-4
3886,3,-2,5,1,2,-17,-1,-3
3887,3,-1,3,3,2,-22,0,-2
3888,3,0,3,4,3,-24,1,-1
3889,3,1,2,5,3,-25,1,0
3890,3,2,1,5,3,-26,1,0
3891,3,3,-1,6,2,-27,2,0
3892,3,3,-3,6,2,-27,2,-1
3893,4,3,-5,6,1,-28,3,-1
3894,5,2,-7,6,0,-30,4,-2
3895,6,2,-9,5,0,-30,6,-2
3896,6,2,-10,5,0,-31,8,-2
3897,7,3,-11,5,1,-31,9,-2
3898,7,3,-11,5,2,-31,10,-2
3899,7,3,-9,5,3,-31,10,-2
3900,6,3,-7,3,4,-31,9,-3
3901,4,2,-5,1,4,-30,7,-3
3902,2,1,-3,-2,4,-29,5,-4
3903,0,1,-1,-4,3,-28,2,-5
3904,-3,0,1,-6,3,-27,0,-6
3905,-6,-1,2,-8,2,-27,-3,-7
3906,-8,-2,3,-10,1,-27,-5,-7
3907,-10,-2,5,-11,1,-26,-7,-7
3908,-12,-2,7,-11,0,-24,-8,-6
3909,-13,-1,7,-12,-1,-23,-8,-6
3910,-13,1,5,-11,-2,-23,-7,-6
3911,-13,2,3,-10,-3,-24,-7,-6
3912,-13,3,1,-9,-4,-24,-6,-5
3913,-12,3,0,-7,-5,-23,-6,-5
3914,-11,3,-2,-6,-6,-23,-5,-5
3915,-9,3,-4,-4,-7,-24,-4,-5
3916,-7,2,-5,-3,-7,-27,-3,-5
3917,-6,2,-7,-2,-7,-31,-3,-4
3918,-6,2,-8,-1,-6,-36,-3,-4
3919,-6,2,-10,-1,-6,-43,-3,-4
3920,-7,2,-12,0,-5,-51,-3,-4
3921,-7,1,-16,-1,-4,-59,-4,-3
3922,-6,1,-19,-1,-4,-66,-4,-3
3923,-5,0,-19,-2,-4,-68,-3,-3
3924,-5,-1,-16,-2,-3,-61,-3,-3
3925,-5,-1,-8,-1,-3,-47,-2,-3
3926,-4,-1,0,0,-2,-30,-1,-2
3927,-4,-1,7,1,-2,-17,0,-2
3928,-4,0,10,1,-2,-9,0,-1
3929,-4,0,10,1,-1,-8,0,0
3930,-4,1,9,1,-1,-11,0,1
3931,-4,1,7,1,-1,-17,0,1
3932,-4,1,6,1,0,-22,0,0
3933,-4,1,6,1,0,-25,1,-1
3934,-4,1,7,0,0,-25,1,-1
3935,-3,1,8,-1,0,-23,1,-1
3936,-3,1,9,-2,0,-19,0,-1
3937,-3,1,10,-3,0,-16,0,0
3938,-2,1,12,-3,0,-12,0,0
3939,-3,0,14,-2,0,-9,1,0
3940,-3,0,16,-2,-1,-8,1,-1
3941,-3,-1,17,-1,-1,-8,1,-1
3942,-3,-1,16,-2,-1,-9,1,-2
3943,-3,-1,16,-2,-1,-9,1,-2
3944,-3,-1,17,-3,-1,-8,1,-2
3945,-4,-1,17,-3,0,-8,1,-2
3946,-5,0,17,-3,0,-9,0,-2
3947,-7,1,17,-3,-1,-9,-1,-1
3948,-8,2,17,-2,-1,-10,-2,-1
3949,-8,2,18,-1,-1,-9,-2,-1
3950,-9,2,18,-1,-2,-9,-2,-2
3951,-8,1,18,0,-2,-8,-2,-2
3952,-8,1,18,1,-3,-7,-2,-3
3953,-7,0,18,0,-3,-6,-2,-3
3954,-7,0,19,-1,-2,-4,-2,-3
3955,-7,0,20,-1,-2,-4,-2,-3
3956,-7,1,21,-2,-1,-4,-2,-2
3957,-7,1,22,-2,-1,-5,-1,-2
3958,-8,1,21,-1,-1,-7,-1,-2
3959,-8,1,19,-2,-1,-8,-2,-2
3960,-9,1,17,-2,-2,-8,-2,-2
3961,-9,0,16,-2,-2,-8,-3,-2
3962,-9,-1,14,-3,-2,-9,-3,-2
3963,-8,-1,13,-3,-2,-10,-4,-2
3964,-8,-1,13,-3,-2,-10,-4,-3
3965,-8,-1,14,-3,-2,-10,-4,-3
3966,-8,-1,15,-3,-2,-10,-3,-3
3967,-8,-1,13,-3,-2,-11,-3,-2
3968,-9,-1,11,-3,-2,-14,-3,-2
3969,-9,-1,8,-4,-2,-16,-3,-2
3970,-9,0,7,-5,-3,-17,-4,-2
3971,-9,1,7,-6,-3,-16,-5,-2
3972,-9,2,8,-6,-3,-13,-5,-2
3973,-10,2,9,-5,-3,-11,-5,-1
3974,-10,3,9,-4,-3,-13,-5,-1
3975,-10,2,8,-4,-2,-16,-5,-1
3976,-9,1,8,-3,-2,-19,-4,-1
3977,-8,0,8,-3,-1,-22,-4,-2
3978,-6,-2,8,-2,-1,-25,-3,-2
3979,-4,-3,8,-2,-1,-28,-2,-2
3980,-2,-3,9,-1,-1,-29,-1,-2
3981,0,-2,9,1,-1,-29,1,-1
3982,1,-1,10,2,-1,-28,2,1
3983,2,-1,10,2,-1,-27,3,1
3984,1,-1,10,1,-2,-27,3,1
3985,1,-1,11,1,-2,-26,3,0
3986,1,-2,11,0,-2,-26,3,0
3987,0,-3,11,-1,-2,-26,2,-1
3988,0,-3,12,-1,-1,-26,2,-1
3989,-1,-3,12,-1,-1,-25,1,0
3990,-1,-2,12,-1,-1,-24,1,0
3991,-1,-1,10,-2,-1,-26,1,-1
3992,-1,0,9,-2,-1,-28,1,-1
3993,-1,1,7,-3,-1,-30,1,-2
3994,-1,2,6,-3,-1,-30,1,-3
3995,-1,2,6,-3,-2,-29,1,-3
3996,-1,2,6,-4,-3,-27,1,-3
3997,-2,1,5,-4,-4,-26,1,-3
3998,-3,0,4,-3,-5,-26,0,-3
3999,-4,-1,3,-3,-5,-27,-1,-2
4000,-4,-1,3,-2,-5,-28,-1,-2
4001,-4,-1,3,-1,-4,-28,-1,-1
4002,-3,-1,3,0,-4,-28,-1,0
4003,-3,-1,4,1,-4,-25,-1,1
4004,-3,-1,4,2,-4,-23,0,1
4005,-3,-1,4,2,-4,-22,1,1
4006,-4,-1,4,2,-3,-22,1,1
4007,-5,-2,3,2,-3,-22,2,1
4008,-5,-2,1,1,-3,-23,2,1
4009,-5,-3,-1,1,-3,-25,2,1
4010,-6,-3,-3,1,-4,-26,1,2
4011,-6,-3,-4,0,-4,-26,1,1
4012,-6,-3,-5,0,-4,-24,1,0
4013,-6,-3,-4,-1,-4,-23,1,-1
4014,-7,-3,-3,-2,-4,-22,1,-2
4015,-7,-2,-1,-2,-3,-22,1,-3
4016,-6,-2,0,-2,-3,-21,1,-3
4017,-6,-1,0,-2,-2,-20,1,-3
4018,-7,0,0,-1,-2,-20,1,-2
4019,-8,2,-2,-1,-1,-20,0,-1
4020,-8,3,-3,0,0,-20,0,1
4021,-9,4,-4,0,1,-19,0,2
4022,-8,4,-5,-1,1,-19,0,3
4023,-7,4,-5,-2,2,-19,0,3
4024,-6,3,-5,-2,2,-19,1,3
4025,-6,3,-6,-2,1,-19,1,2
4026,-6,4,-8,-2,0,-19,1,2
4027,-6,4,-10,-2,-1,-20,2,1
4028,-6,4,-15,-1,-1,-20,2,1
4029,-6,3,-19,-1,-1,-19,2,1
4030,-6,3,-23,-1,-1,-17,2,1
4031,-6,2,-24,0,-1,-12,2,1
4032,-5,2,-24,1,-1,-6,2,1
4033,-5,2,-22,1,-2,-1,3,1
4034,-5,2,-20,2,-3,2,4,1
4035,-4,2,-18,3,-4,5,6,0
4036,-4,2,-16,5,-4,8,7,-1
4037,-3,2,-13,6,-4,11,9,-1
4038,-1,3,-11,9,-3,13,11,-1
4039,1,4,-9,12,-2,15,14,1
4040,4,5,-8,15,-1,16,18,2
4041,6,6,-8,19,0,17,22,3
4042,9,7,-8,23,0,17,25,4
4043,11,9,-8,26,0,16,28,5
4044,14,10,-7,30,0,14,31,6
4045,16,11,-5,32,1,12,34,7
4046,19,11,-3,34,1,12,36,8
4047,21,11,-2,35,1,12,38,9
4048,25,10,-1,36,2,14,41,8
4049,28,9,0,37,2,16,43,8
4050,30,9,2,37,3,17,46,7
4051,31,10,5,37,3,18,47,6
4052,31,11,9,36,4,18,47,6
4053,31,12,13,36,4,18,47,5
4054,31,12,17,35,4,18,46,6
4055,30,11,19,34,4,15,45,6
4056,30,11,19,34,3,10,45,7
4057,30,11,18,33,3,6,43,7
4058,30,11,17,33,3,1,42,8
4059,29,12,17,33,3,-4,41,9
4060,28,13,17,33,4,-11,40,9
4061,27,14,16,33,4,-17,39,10
4062,26,14,15,33,5,-22,38,11
4063,25,13,14,33,6,-24,38,11
4064,24,12,13,33,6,-25,37,11
4065,23,11,13,32,5,-25,35,11
4066,21,10,13,31,5,-25,33,11
4067,19,10,14,29,5,-25,30,11
4068,16,11,16,27,6,-26,27,11
4069,13,11,17,25,7,-28,25,12
4070,11,10,19,22,7,-29,23,12
4071,8,9,20,19,7,-29,20,11
4072,6,7,21,15,7,-27,17,10
4073,3,6,22,11,5,-26,15,8
4074,1,4,22,8,3,-25,12,6
4075,-1,3,23,5,2,-25,10,5
4076,-3,3,23,3,1,-25,7,3
4077,-5,3,21,0,0,-27,5,3
4078,-6,2,19,-2,0,-32,3,2
4079,-8,1,14,-4,0,-39,1,2
4080,-9,1,11,-5,0,-46,-1,1
4081,-10,1,8,-6,0,-52,-2,2
4082,-10,1,7,-7,0,-54,-2,2
4083,-11,1,7,-8,0,-54,-3,2
4084,-12,2,7,-8,1,-51,-5,3
4085,-13,3,6,-9,1,-49,-6,4
4086,-14,4,5,-9,1,-50,-7,5
4087,-16,5,4,-9,2,-53,-9,5
4088,-17,5,4,-9,2,-58,-11,6
4089,-18,4,4,-9,2,-62,-12,6
4090,-18,3,5,-9,2,-65,-14,5
4091,-18,1,6,-10,2,-67,-14,4
4092,-18,-1,8,-10,2,-66,-15,3
4093,-18,-2,9,-11,2,-64,-16,2
4094,-19,-4,11,-11,2,-61,-17,1
4095,-20,-5,11,-12,2,-58,-17,-1
4096,-21,-6,12,-13,2,-56,-18,-3
4097,-22,-7,12,-15,1,-54,-18,-5
4098,-22,-8,12,-17,0,-52,-17,-8
4099,-22,-9,11,-18,-1,-50,-17,-10
4100,-21,-11,10,-19,-3,-47,-17,-11
4101,-21,-11,9,-20,-4,-46,-17,-12
4102,-22,-11,8,-20,-5,-44,-18,-12
4103,-22,-11,8,-20,-5,-45,-19,-12
4104,-22,-10,8,-20,-5,-48,-20,-11
4105,-23,-9,7,-20,-5,-51,-20,-10
4106,-23,-8,6,-20,-4,-54,-21,-9
4107,-24,-7,6,-20,-4,-57,-21,-8
4108,-24,-6,7,-19,-4,-57,-20,-7
4109,-23,-6,9,-18,-4,-55,-19,-6
4110,-22,-6,11,-17,-4,-52,-18,-6
4111,-21,-7,13,-17,-4,-49,-17,-6
4112,-20,-7,15,-17,-3,-47,-17,-7
4113,-20,-8,16,-17,-3,-47,-17,-7
4114,-20,-9,17,-16,-3,-46,-18,-7
4115,-20,-10,17,-16,-3,-47,-18,-8
4116,-20,-11,16,-15,-3,-47,-18,-8
4117,-19,-12,14,-13,-4,-46,-18,-7
4118,-17,-12,12,-12,-4,-45,-18,-7
4119,-16,-12,8,-12,-4,-43,-17,-7
4120,-16,-13,5,-12,-4,-44,-16,-6
4121,-16,-13,1,-12,-3,-50,-16,-6
4122,-17,-13,-4,-13,-3,-60,-17,-6
4123,-18,-12,-7,-15,-3,-69,-18,-6
4124,-19,-12,-8,-17,-4,-73,-19,-6
4125,-19,-12,-7,-18,-4,-69,-20,-7
4126,-18,-12,-3,-19,-5,-57,-20,-8
4127,-17,-13,2,-19,-6,-42,-19,-8
4128,-16,-13,7,-19,-6,-25,-19,-8
4129,-16,-12,11,-19,-6,-13,-18,-7
4130,-16,-12,13,-19,-6,-7,-18,-5
4131,-16,-11,13,-18,-4,-5,-18,-4
4132,-16,-10,12,-17,-3,-6,-19,-4
4133,-16,-9,12,-17,-3,-6,-19,-4
4134,-16,-9,11,-16,-3,-5,-19,-4
4135,-16,-8,9,-15,-3,-4,-18,-4
4136,-16,-8,8,-14,-3,-2,-18,-4
4137,-15,-7,8,-13,-2,-1,-16,-4
4138,-14,-7,9,-12,-1,1,-15,-4
4139,-13,-7,10,-11,0,3,-14,-3
4140,-13,-7,11,-10,0,7,-13,-3
4141,-13,-6,13,-8,0,13,-12,-3
4142,-14,-6,14,-7,-1,18,-12,-3
4143,-15,-6,14,-6,-2,20,-12,-3
4144,-16,-6,13,-6,-2,17,-12,-3
4145,-15,-6,10,-5,-3,9,-12,-3
4146,-14,-7,6,-4,-3,-5,-12,-4
4147,-14,-8,0,-4,-3,-22,-12,-4
4148,-14,-8,-6,-4,-3,-38,-13,-5
4149,-14,-7,-10,-4,-3,-49,-12,-6
4150,-13,-6,-12,-5,-4,-53,-11,-6
4151,-13,-5,-11,-5,-5,-48,-10,-6
4152,-13,-4,-7,-6,-6,-37,-9,-6
4153,-13,-4,-3,-6,-6,-22,-9,-5
4154,-13,-4,1,-6,-6,-10,-8,-4
4155,-13,-4,3,-6,-5,-3,-7,-4
4156,-14,-4,4,-6,-4,-3,-6,-4
4157,-14,-4,2,-6,-3,-7,-6,-4
4158,-14,-4,1,-6,-2,-13,-5,-4
4159,-14,-4,0,-6,-2,-20,-5,-4
4160,-13,-3,-2,-6,-1,-27,-5,-3
4161,-13,-2,-3,-5,1,-33,-5,-2
4162,-12,-1,-5,-5,2,-38,-4,-1
4163,-10,-1,-7,-4,3,-43,-3,0
4164,-9,0,-9,-3,3,-48,-3,1
4165,-9,0,-10,-2,3,-52,-2,2
4166,-8,0,-11,-2,3,-54,-2,3
4167,-7,0,-11,-2,2,-55,-2,3
4168,-7,-1,-11,-2,2,-53,-1,3
4169,-6,-1,-10,-2,1,-51,-1,2
4170,-6,-1,-10,-3,0,-49,-1,2
4171,-6,-1,-10,-3,-1,-49,-2,1
4172,-7,-1,-11,-3,-1,-51,-2,0
4173,-8,-1,-11,-4,0,-54,-3,-1
4174,-10,-2,-11,-4,-1,-56,-3,-1
4175,-11,-2,-11,-4,-1,-57,-3,-2
4176,-12,-2,-11,-5,-2,-57,-3,-2
4177,-13,-2,-11,-5,-3,-56,-3,-2
4178,-14,-1,-11,-5,-3,-55,-3,-2
4179,-15,0,-11,-6,-3,-53,-4,-2
4180,-16,0,-10,-6,-3,-51,-4,-2
4181,-16,1,-10,-6,-3,-49,-5,-2
4182,-16,1,-9,-6,-2,-48,-5,-2
4183,-16,1,-9,-5,-2,-47,-5,-2
4184,-15,1,-9,-4,-1,-48,-4,-1
4185,-14,1,-10,-4,0,-48,-3,0
4186,-13,2,-10,-3,1,-47,-3,0
4187,-13,3,-9,-4,1,-44,-2,1
4188,-13,3,-9,-4,1,-41,-2,1
4189,-13,4,-9,-5,2,-38,-1,2
4190,-13,5,-9,-6,3,-36,-1,3
4191,-12,6,-8,-6,3,-34,-1,4
4192,-12,5,-7,-7,4,-35,-2,4
4193,-11,5,-6,-8,4,-36,-3,4
4194,-10,3,-5,-8,5,-36,-3,3
4195,-10,2,-2,-8,5,-33,-3,2
4196,-9,1,-1,-8,6,-30,-3,2
4197,-9,0,-1,-8,6,-27,-4,2
4198,-9,0,-1,-8,6,-26,-5,2
4199,-9,-1,0,-8,6,-24,-6,1
4200,-10,-1,1,-8,5,-21,-7,1
4201,-11,-2,3,-9,4,-19,-8,0
4202,-11,-2,4,-10,3,-19,-8,-1
4203,-12,-2,4,-10,3,-20,-9,-1
4204,-13,-1,3,-10,3,-21,-9,-1
4205,-13,-1,3,-10,2,-21,-8,0
4206,-13,-1,2,-10,2,-19,-8,1
4207,-13,1,2,-10,1,-16,-7,2
4208,-12,2,1,-10,1,-13,-6,3
4209,-11,3,-1,-9,0,-11,-6,4
4210,-10,5,-2,-9,0,-10,-5,5
4211,-9,5,-3,-8,0,-9,-4,5
4212,-8,6,-5,-7,1,-11,-4,5
4213,-7,5,-7,-6,1,-14,-3,5
4214,-7,5,-7,-6,1,-17,-3,5
4215,-7,6,-7,-5,1,-18,-3,6
4216,-8,7,-7,-4,0,-19,-3,6
4217,-8,7,-6,-3,-1,-18,-2,6
4218,-9,7,-5,-3,-2,-18,-2,6
4219,-9,6,-5,-4,-2,-17,-3,5
4220,-10,5,-4,-5,-2,-17,-3,4
4221,-11,3,-3,-6,-2,-17,-5,4
4222,-12,1,-1,-7,-2,-16,-6,3
4223,-13,-1,0,-8,-2,-13,-7,2
4224,-13,-2,1,-9,-3,-11,-7,1
4225,-13,-2,2,-10,-4,-7,-6,-1
4226,-13,-2,3,-11,-5,-2,-6,-2
4227,-13,-2,3,-11,-5,2,-6,-3
4228,-14,-1,2,-11,-5,3,-6,-3
4229,-14,-1,1,-10,-6,3,-5,-4
4230,-14,1,1,-9,-6,4,-5,-3
4231,-13,1,1,-8,-6,6,-3,-3
4232,-12,2,1,-7,-5,9,-2,-2
4233,-10,3,1,-5,-5,13,0,-1
4234,-9,3,-1,-4,-4,15,2,0
4235,-8,4,-4,-4,-3,16,2,1
4236,-8,4,-7,-4,-2,15,3,1
4237,-7,4,-9,-3,-1,14,3,2
4238,-6,4,-9,-3,-1,14,3,2
4239,-4,3,-9,-3,0,15,4,2
4240,-2,2,-9,-2,0,14,5,2
4241,-1,0,-9,-2,1,13,5,1
4242,-1,-2,-9,-2,1,11,4,0
4243,-1,-4,-9,-2,1,7,3,-1
4244,-2,-6,-10,-3,1,3,1,-2
4245,-1,-7,-10,-3,1,0,0,-2
4246,-1,-8,-9,-4,1,0,-2,-2
4247,-1,-8,-8,-5,1,1,-4,-2
4248,0,-8,-8,-6,1,1,-5,-2
4249,0,-8,-7,-6,1,2,-6,-1
4250,0,-8,-6,-7,1,3,-7,0
4251,0,-7,-5,-7,0,6,-7,1
4252,-1,-6,-4,-6,0,9,-6,1
4253,-1,-4,-3,-6,0,11,-4,2
4254,-2,-2,-4,-5,0,12,-3,2
4255,-2,0,-6,-5,0,11,-2,2
4256,-3,1,-7,-4,1,10,-1,2
4257,-2,2,-8,-3,1,10,0,2
4258,-2,2,-9,-2,1,11,1,2
4259,-2,3,-8,-1,1,14,2,2
4260,-1,3,-7,0,1,17,3,2
4261,-1,4,-7,0,0,19,4,2
4262,-1,5,-7,1,-1,22,4,2
4263,-1,6,-7,1,-1,24,4,1
4264,-2,6,-6,1,-1,27,3,1
4265,-2,6,-6,1,-1,30,3,1
4266,-2,5,-5,0,0,33,2,1
4267,-3,4,-4,-1,1,38,2,1
4268,-3,4,-3,-1,2,43,1,1
4269,-3,5,-2,-2,3,46,1,1
4270,-3,5,-3,-2,4,46,0,1
4271,-3,6,-4,-2,4,43,0,2
4272,-3,6,-6,-1,3,41,-1,2
4273,-3,5,-6,-1,2,41,-1,3
4274,-3,4,-5,-1,2,43,-1,3
4275,-3,2,-5,-1,2,45,-1,3
4276,-2,0,-4,-1,1,45,-1,2
4277,-2,-1,-3,0,1,45,0,2
4278,-1,-2,-3,1,1,46,1,1
4279,1,-3,-3,2,1,46,2,0
4280,2,-3,-2,3,1,46,3,-1
4281,2,-3,-2,3,1,45,3,-1
4282,3,-4,-3,3,1,44,3,-1
4283,3,-4,-3,3,0,41,3,-1
4284,3,-4,-5,3,0,38,2,-1
4285,2,-3,-6,4,0,34,2,0
4286,2,-2,-8,4,1,30,1,1
4287,2,-1,-10,5,1,26,1,2
4288,1,1,-10,6,2,24,0,2
4289,1,1,-10,6,3,22,0,2
4290,1,1,-10,6,3,21,0,2
4291,1,1,-10,7,2,23,1,2
4292,2,0,-9,7,1,25,1,1
4293,2,-1,-9,7,-1,28,1,1
4294,2,-1,-9,7,-3,30,1,0
4295,2,0,-9,7,-4,30,1,0
4296,2,0,-9,6,-3,31,1,0
4297,2,0,-9,5,-3,30,1,0
4298,2,0,-9,5,-2,30,1,0
4299,3,-1,-9,5,-1,28,1,0
4300,4,-2,-10,5,0,27,2,0
4301,5,-3,-10,6,0,26,2,0
4302,6,-3,-11,6,1,25,3,1
4303,7,-3,-11,7,2,23,4,1
4304,7,-3,-11,7,2,21,5,2
4305,8,-3,-11,7,3,20,6,2
4306,8,-3,-11,8,3,19,6,2
4307,8,-3,-11,9,2,19,5,1
4308,7,-2,-10,9,1,19,5,0
4309,5,-2,-10,9,0,19,5,-1
4310,4,-2,-11,8,-1,18,4,-1
4311,4,-2,-11,8,-1,15,4,-2
4312,4,-2,-11,7,0,11,5,-2
4313,5,-3,-11,7,1,7,5,-2
4314,6,-3,-12,7,2,2,6,-2
4315,6,-4,-14,8,1,-4,6,-2
4316,5,-4,-17,8,1,-11,6,-2
4317,4,-4,-22,7,-1,-19,5,-2
4318,3,-4,-26,6,-2,-26,4,-2
4319,3,-4,-29,5,-2,-31,4,-2
4320,3,-4,-30,5,-2,-33,5,-3
4321,5,-4,-28,6,-2,-31,6,-2
4322,6,-3,-24,7,-2,-23,7,-2
4323,8,-3,-18,8,-2,-10,8,-2
4324,9,-3,-12,9,-1,2,9,-2
4325,9,-3,-8,11,-1,9,9,-2
4326,10,-4,-8,12,-1,10,9,-2
4327,10,-4,-10,12,-1,7,10,-2
4328,11,-4,-13,13,-1,1,11,-2
4329,11,-4,-16,13,-1,-5,11,-2
4330,9,-4,-17,12,-2,-8,10,-2
4331,7,-4,-18,10,-2,-9,8,-2
4332,5,-4,-17,9,-3,-9,6,-2
4333,3,-4,-16,7,-3,-9,5,-2
4334,2,-3,-16,6,-3,-9,4,-3
4335,2,-3,-14,6,-3,-7,3,-3
4336,1,-2,-13,5,-3,-6,3,-4
4337,1,-2,-13,6,-3,-5,3,-4
4338,2,-1,-12,7,-2,-3,3,-4
4339,2,-1,-11,7,-2,-1,4,-4
4340,1,0,-10,7,-2,2,3,-4
4341,-1,1,-9,6,-2,3,3,-4
4342,-2,1,-8,5,-2,5,1,-3
4343,-4,1,-6,3,-2,7,0,-3
4344,-4,1,-5,2,-2,7,-1,-3
4345,-4,0,-5,2,-2,7,-2,-2
4346,-3,-1,-5,2,-1,7,-3,-2
4347,-3,-2,-5,2,-1,8,-3,-2
4348,-3,-3,-5,1,-1,9,-4,-3
4349,-3,-4,-5,1,-2,12,-4,-3
4350,-3,-6,-4,1,-2,15,-5,-4
4351,-4,-7,-3,1,-4,18,-5,-5
4352,-4,-8,-1,1,-5,20,-6,-6
4353,-4,-9,1,1,-6,24,-6,-7
4354,-4,-8,2,1,-6,29,-6,-7
4355,-4,-8,3,1,-7,37,-5,-8
4356,-3,-7,4,1,-7,46,-5,-7
4357,-4,-5,5,2,-7,54,-5,-6
4358,-4,-3,6,3,-6,58,-5,-5
4359,-4,-1,6,4,-5,60,-5,-3
4360,-5,1,6,5,-4,60,-6,-1
4361,-6,2,7,6,-3,60,-7,0
4362,-6,2,7,6,-2,58,-7,1
4363,-6,2,7,6,-2,57,-7,1
4364,-6,1,7,5,-2,57,-7,1
4365,-5,1,8,5,-2,57,-6,0
4366,-3,1,8,5,-1,56,-5,0
4367,-2,1,7,4,-1,56,-5,0
4368,-1,1,7,3,-2,55,-5,0
4369,0,0,6,2,-2,54,-7,0
4370,0,-1,5,1,-3,52,-8,0
4371,0,-1,3,0,-3,47,-9,0
4372,-1,-2,1,-1,-3,42,-9,0
4373,-1,-2,-2,-2,-3,37,-9,0
4374,-2,-3,-3,-3,-2,33,-10,0
4375,-3,-4,-5,-4,-1,28,-10,0
4376,-4,-4,-6,-4,0,24,-11,0
4377,-4,-4,-7,-4,1,20,-11,0
4378,-5,-3,-8,-5,1,16,-11,1
4379,-5,-2,-7,-5,1,14,-10,1
4380,-5,-2,-6,-4,1,12,-9,1
4381,-5,-2,-5,-4,1,10,-9,1
4382,-4,-2,-4,-3,0,8,-8,1
4383,-3,-2,-3,-2,1,3,-7,1
