Time,F3 - C3,C3 - P3,P3 - O1,F4 - C4,C4 - P4,P4 - O2,FZ - CZ,CZ - PZ
1,5,-6,8,-3,-2,-8,-4,-1
2,6,-7,8,-4,-2,-8,-4,-2
3,6,-8,7,-4,-3,-8,-4,-3
4,5,-8,4,-5,-3,-9,-5,-3
5,5,-8,1,-5,-3,-12,-5,-3
6,5,-7,-1,-5,-4,-15,-4,-3
7,5,-7,-1,-5,-4,-15,-3,-2
8,5,-7,1,-4,-3,-14,-2,-2
9,5,-7,4,-4,-3,-12,-1,-1
10,5,-7,5,-3,-2,-12,0,-1
11,6,-8,4,-3,-2,-14,1,0
12,7,-8,3,-4,-1,-15,1,1
13,7,-8,2,-4,-1,-13,1,1
14,7,-8,-1,-4,-1,-11,1,1
15,6,-8,-4,-4,0,-10,0,1
16,6,-8,-7,-4,1,-11,-1,1
17,6,-8,-8,-5,1,-12,-2,1
18,6,-9,-8,-5,0,-11,-2,1
19,7,-9,-7,-5,-1,-9,-2,1
20,8,-9,-7,-5,-2,-7,-2,1
21,9,-8,-9,-4,-2,-8,-1,1
22,9,-8,-10,-4,-2,-10,0,1
23,9,-7,-9,-4,-1,-11,1,1
24,9,-7,-7,-4,-1,-11,1,1
25,8,-6,-4,-4,0,-12,1,1
26,6,-6,-2,-4,0,-13,0,0
27,5,-6,-2,-4,1,-13,-1,0
28,3,-5,-3,-4,1,-11,-3,1
29,2,-5,-4,-4,1,-10,-4,1
30,2,-5,-5,-4,1,-11,-4,2
31,2,-5,-7,-4,2,-14,-3,3
32,3,-4,-9,-3,2,-18,-3,3
33,3,-4,-12,-3,3,-22,-2,4
34,4,-4,-14,-2,3,-26,-1,5
35,5,-4,-17,-1,3,-32,0,5
36,6,-4,-20,0,3,-38,1,5
37,6,-4,-20,0,3,-42,2,5
38,6,-4,-19,1,2,-44,3,5
39,6,-4,-18,1,2,-44,4,4
40,6,-3,-16,2,2,-43,5,4
41,5,-3,-15,3,1,-41,6,4
42,4,-3,-12,3,2,-36,6,4
43,3,-3,-8,3,2,-29,6,5
44,2,-2,-4,4,3,-23,6,5
45,1,-2,-1,4,4,-19,6,6
46,0,-2,0,3,5,-17,6,6
47,1,-2,2,2,5,-16,6,6
48,1,-3,5,1,4,-12,5,6
49,2,-3,8,0,3,-5,5,5
50,3,-4,12,-1,2,6,4,4
51,3,-4,16,-2,1,18,4,4
52,3,-4,18,-2,0,27,4,3
53,3,-3,22,-3,-1,37,4,3
54,2,-2,25,-3,-2,46,5,2
55,2,-2,29,-3,-2,54,5,2
56,1,-3,33,-3,-3,60,4,1
57,1,-3,37,-3,-4,67,4,1
58,0,-3,42,-2,-5,76,4,1
59,1,-3,48,-1,-5,88,5,1
60,2,-2,54,0,-5,100,6,1
61,3,-1,58,1,-5,110,7,2
62,4,0,59,3,-4,115,9,3
63,5,1,58,4,-3,115,9,4
64,6,2,56,6,-2,112,9,5
65,6,2,54,7,-1,107,8,6
66,5,1,51,7,0,101,7,7
67,4,0,48,7,1,94,5,7
68,2,-1,45,5,1,89,3,7
69,0,-2,43,4,2,85,1,7
70,-1,-2,39,3,3,78,-1,6
71,-2,-2,33,1,3,67,-2,7
72,-2,-1,26,0,3,54,-4,7
73,-3,-1,20,-1,3,43,-5,7
74,-4,0,15,-3,2,36,-6,7
75,-5,1,12,-4,1,32,-6,6
76,-6,1,10,-5,0,31,-7,5
77,-8,1,9,-6,-1,31,-7,3
78,-8,1,9,-7,-1,33,-7,2
79,-9,0,10,-8,-2,34,-7,0
80,-8,-1,9,-9,-2,32,-7,-1
81,-8,-2,7,-9,-2,27,-7,-2
82,-7,-3,3,-8,-2,18,-7,-2
83,-6,-3,-2,-7,-2,9,-7,-2
84,-5,-3,-4,-6,-3,3,-6,-1
85,-4,-2,-5,-4,-2,-1,-5,-1
86,-2,-2,-7,-3,-1,-4,-4,0
87,-1,-3,-9,-3,0,-7,-3,-1
88,-1,-4,-10,-3,2,-9,-2,-1
89,-1,-5,-9,-3,4,-9,-2,-2
90,-1,-5,-7,-3,4,-9,-3,-2
91,-3,-6,-3,-3,4,-7,-4,-1
92,-4,-6,1,-3,4,-2,-6,0
93,-6,-5,6,-3,4,3,-8,1
94,-8,-4,11,-4,4,8,-10,2
95,-9,-3,15,-5,4,11,-12,3
96,-9,-3,16,-5,4,13,-13,3
97,-10,-2,16,-6,4,12,-14,3
98,-10,-1,14,-6,4,9,-14,3
99,-10,-1,13,-6,3,8,-14,3
100,-9,-1,12,-6,2,8,-14,3
101,-8,-1,10,-6,2,8,-14,3
102,-7,-2,7,-6,1,6,-14,2
103,-6,-2,2,-6,0,3,-13,2
104,-6,-2,-4,-5,-1,0,-12,1
105,-6,-3,-8,-5,-2,-2,-10,-1
106,-6,-3,-11,-5,-3,-5,-8,-2
107,-6,-2,-14,-4,-4,-10,-7,-2
108,-5,-3,-16,-2,-4,-16,-6,-3
109,-4,-3,-17,0,-5,-20,-4,-2
110,-3,-3,-16,1,-5,-19,-4,-2
111,-2,-2,-13,2,-4,-14,-3,-1
112,-2,-2,-10,2,-4,-8,-2,-1
113,-2,-2,-9,2,-3,-4,-2,0
114,-1,-2,-8,2,-3,-1,-2,1
115,-1,-2,-6,2,-2,2,-3,2
116,-1,-3,-5,1,-2,2,-3,2
117,-1,-3,-5,0,-2,1,-4,2
118,-2,-4,-6,-1,-2,-2,-5,2
119,-3,-4,-7,-2,-2,-4,-6,2
120,-3,-3,-8,-3,-2,-4,-7,1
121,-3,-3,-10,-4,-2,-2,-7,1
122,-3,-2,-11,-3,-2,-2,-7,2
123,-2,-1,-12,-2,-2,-3,-6,2
124,-2,1,-11,-1,-2,-3,-5,3
125,-1,2,-9,1,-1,-1,-4,3
126,-1,2,-6,2,-1,0,-2,2
127,0,2,-6,2,-1,1,-1,2
128,1,1,-7,3,-1,-1,0,0
129,1,-1,-8,3,-1,-4,1,-1
130,1,-3,-8,4,-1,-5,2,-3
131,2,-4,-8,4,-2,-6,2,-4
132,3,-5,-11,5,-3,-7,3,-5
133,5,-6,-14,6,-3,-10,3,-5
134,6,-6,-15,6,-4,-11,3,-5
135,7,-6,-13,6,-4,-9,3,-4
136,7,-7,-11,5,-4,-6,3,-4
137,6,-7,-8,4,-4,-2,2,-4
138,4,-8,-7,3,-4,1,0,-5
139,2,-8,-5,2,-5,2,0,-5
140,1,-8,-3,1,-5,3,-1,-6
141,0,-8,-1,1,-5,4,-1,-6
142,0,-8,0,1,-4,5,0,-5
143,0,-7,0,1,-4,5,0,-5
144,1,-6,0,2,-4,3,1,-4
145,1,-5,1,3,-4,3,1,-3
146,1,-4,2,4,-4,3,2,-2
147,1,-3,3,4,-4,3,2,-2
148,1,-3,3,4,-4,3,3,-2
149,2,-4,1,5,-3,0,3,-2
150,2,-4,0,5,-2,-1,2,-2
151,2,-4,-1,5,-2,-2,3,-2
152,2,-3,-1,6,-1,-1,3,-2
153,3,-3,-2,6,-1,-2,4,-2
154,3,-2,-3,7,-1,-4,5,-2
155,4,-3,-3,8,-1,-4,6,-2
156,4,-3,-3,8,-2,-3,6,-2
157,4,-3,-2,8,-3,-2,6,-2
158,4,-3,-2,8,-3,-3,6,-2
159,3,-2,-3,7,-3,-6,6,-1
160,3,-1,-4,6,-4,-7,6,-1
161,3,0,-5,6,-5,-7,6,-1
162,3,0,-7,6,-5,-7,5,-2
163,3,0,-11,5,-6,-11,4,-2
164,3,0,-16,5,-6,-18,3,-2
165,2,-1,-21,4,-5,-24,1,-3
166,2,-1,-23,3,-5,-29,0,-3
167,2,-2,-24,3,-5,-32,0,-3
168,1,-2,-23,3,-4,-32,0,-3
169,1,-3,-21,3,-4,-33,1,-2
170,1,-4,-17,4,-4,-32,2,-1
171,1,-5,-12,5,-4,-29,2,-1
172,1,-5,-7,5,-4,-25,3,-1
173,2,-6,-5,5,-4,-22,3,-1
174,3,-6,-5,6,-5,-22,4,-1
175,5,-6,-5,6,-5,-22,5,-2
176,6,-5,-5,7,-6,-20,5,-2
177,7,-5,-5,7,-6,-17,6,-2
178,8,-5,-5,7,-6,-13,6,-2
179,8,-5,-7,6,-5,-12,6,-2
180,8,-5,-9,5,-4,-12,6,-2
181,7,-5,-9,4,-3,-11,6,-2
182,7,-5,-10,3,-3,-12,7,-2
183,6,-4,-9,1,-3,-11,6,-2
184,5,-4,-9,-1,-3,-10,5,-2
185,3,-4,-8,-2,-3,-8,4,-3
186,2,-4,-7,-3,-4,-6,3,-3
187,1,-3,-5,-3,-4,-3,2,-3
188,1,-3,-3,-2,-5,1,2,-3
189,1,-2,-1,-2,-5,2,2,-3
190,1,-2,-2,-1,-4,0,2,-3
191,1,-2,-3,0,-4,-3,2,-3
192,1,-2,-2,1,-4,-3,3,-3
193,0,-2,0,1,-3,-2,3,-3
194,0,-3,2,1,-2,-1,4,-3
195,0,-2,2,2,-2,-3,5,-2
196,-1,-2,3,2,-2,-4,5,-1
197,-1,-1,4,2,-2,-2,5,0
198,0,0,5,2,-2,1,5,0
199,0,1,4,2,-2,4,5,1
200,1,2,2,3,-2,5,5,2
201,2,2,0,3,-1,6,6,2
202,3,3,1,4,0,6,7,3
203,3,4,1,5,1,6,8,4
204,4,5,1,5,2,6,10,5
205,4,6,3,6,3,8,11,6
206,5,7,5,6,3,10,11,6
207,5,8,7,6,4,11,11,6
208,5,8,9,5,5,11,10,7
209,5,8,9,5,5,11,9,6
210,5,9,8,4,6,11,8,6
211,5,9,7,3,6,12,7,6
212,4,9,7,3,5,16,7,7
213,4,9,6,2,5,18,7,7
214,5,8,5,2,4,19,6,7
215,5,7,4,1,3,17,6,6
216,5,7,4,1,2,17,5,6
217,4,7,4,0,2,18,5,5
218,4,7,4,1,1,19,5,5
219,2,7,4,1,1,18,5,4
220,1,8,3,1,2,17,5,4
221,1,8,3,1,2,17,6,4
222,1,7,4,1,2,20,6,3
223,1,7,5,1,2,22,6,2
224,2,6,5,1,2,23,6,1
225,3,5,5,1,1,23,6,1
226,3,5,5,1,0,21,6,1
227,3,4,7,2,-1,20,6,1
228,3,3,10,2,-2,20,6,1
229,2,3,11,2,-2,20,5,1
230,1,2,11,2,-2,21,4,0
231,0,1,11,2,-3,21,4,0
232,1,1,12,3,-3,21,5,1
233,2,0,13,3,-3,23,5,1
234,3,0,14,4,-3,25,6,2
235,5,0,13,4,-3,28,7,2
236,6,-1,12,4,-3,30,6,3
237,6,0,11,3,-2,31,5,3
238,6,0,12,2,-1,32,3,3
239,6,0,12,1,-1,32,1,3
240,4,0,12,-1,0,30,1,2
241,4,-1,10,-1,-1,25,1,0
242,3,-1,8,-2,-1,21,1,-2
243,4,-2,6,-1,-1,19,3,-3
244,5,-3,5,-1,-1,19,4,-4
245,6,-3,3,0,-1,18,5,-4
246,6,-3,-1,0,0,17,5,-3
247,6,-3,-3,1,-1,15,5,-3
248,5,-2,-3,0,-1,16,4,-3
249,5,-2,-1,0,-2,18,3,-3
250,5,-2,1,0,-3,19,2,-3
251,5,-2,1,0,-3,18,2,-2
252,5,-1,0,0,-4,17,1,-2
253,4,-1,-1,0,-3,17,1,-2
254,4,0,-2,0,-3,17,1,-1
255,4,0,-3,1,-2,16,1,0
256,3,1,-4,1,-2,13,1,0
257,3,1,-3,2,-1,12,1,1
258,3,1,-2,3,0,11,1,1
259,2,0,-2,3,1,10,1,1
260,2,0,-3,3,1,8,1,1
261,1,1,-4,3,0,6,1,1
262,1,2,-4,3,0,4,2,0
263,0,3,-4,2,-1,4,2,0
264,-1,3,-4,1,-1,4,3,0
265,-1,4,-5,1,-2,5,4,0
266,-1,3,-7,1,-3,5,5,-1
267,2,3,-9,2,-3,5,8,-1
268,5,3,-9,4,-4,7,11,-1
269,8,4,-9,6,-4,9,15,-1
270,11,4,-10,9,-3,10,19,-1
271,14,5,-11,11,-2,8,22,-1
272,15,5,-12,13,-1,4,23,-1
273,16,5,-12,14,-1,-1,24,-1
274,16,5,-13,16,-1,-7,24,-2
275,17,5,-14,18,-1,-13,25,-3
276,18,4,-16,19,-1,-18,26,-3
277,19,3,-16,21,-1,-21,26,-4
278,21,2,-14,22,-1,-21,26,-3
279,23,1,-12,23,-1,-18,26,-3
280,25,0,-11,23,-1,-16,26,-2
281,27,1,-9,23,-1,-15,26,-1
282,28,1,-7,23,-1,-15,27,0
283,29,2,-5,23,-1,-12,27,1
284,30,3,-2,22,-1,-5,27,2
285,29,3,1,21,-1,3,25,2
286,28,3,3,20,-1,10,23,2
287,28,2,3,18,-2,11,21,2
288,27,1,2,17,-2,10,19,1
289,28,0,3,16,-2,8,19,0
290,28,-1,4,16,-1,5,19,-1
291,30,-1,4,16,-1,3,20,-1
292,31,-1,2,15,0,1,21,-1
293,31,-1,0,15,1,1,21,-1
294,30,0,0,15,1,2,21,0
295,29,1,0,15,1,2,20,1
296,28,1,-1,15,1,0,20,1
297,27,2,-3,16,1,-3,19,1
298,25,3,-4,16,1,-5,18,1
299,23,3,-4,15,0,-6,16,2
300,21,2,-4,13,0,-8,13,2
301,18,2,-5,11,0,-11,10,2
302,15,1,-8,10,0,-15,8,1
303,12,0,-10,8,-1,-16,6,0
304,9,-1,-10,7,-2,-14,5,-1
305,7,-2,-8,6,-3,-11,4,-3
306,6,-3,-6,5,-5,-9,5,-4
307,5,-4,-4,5,-7,-8,6,-5
308,4,-4,-2,5,-8,-7,7,-6
309,4,-5,1,4,-8,-6,7,-6
310,4,-5,2,4,-8,-6,7,-6
311,4,-5,1,3,-8,-8,6,-6
312,4,-5,-2,3,-8,-10,6,-6
313,3,-4,-3,2,-7,-9,5,-5
314,3,-3,-4,2,-7,-5,5,-4
315,4,-2,-4,2,-6,-1,5,-3
316,4,-1,-5,3,-5,1,6,-2
317,5,0,-6,2,-4,1,6,0
318,6,2,-8,2,-3,-1,6,1
319,6,3,-9,1,-3,0,6,2
320,6,4,-9,1,-3,2,6,2
321,6,4,-9,1,-3,5,6,2
322,5,5,-10,2,-3,4,6,2
323,4,5,-12,3,-2,0,6,2
324,4,5,-13,4,-2,-4,6,2
325,4,5,-13,4,-1,-6,6,2
326,4,5,-11,4,0,-5,6,2
327,4,4,-9,3,0,-3,5,2
328,4,4,-7,2,0,-4,4,2
329,3,4,-4,1,0,-4,4,1
330,3,4,-1,1,-1,-4,3,1
331,2,4,1,2,-1,-4,4,0
332,3,4,2,4,-2,-4,4,0
333,4,4,2,6,-1,-7,5,0
334,5,4,1,8,-1,-9,5,1
335,6,5,0,10,1,-11,5,2
336,6,5,-2,11,2,-12,5,3
337,7,6,-4,11,3,-12,4,4
338,8,6,-7,11,3,-15,4,5
339,9,6,-8,11,3,-19,4,5
340,10,6,-9,11,4,-22,4,5
341,10,6,-8,11,4,-26,5,6
342,11,7,-8,11,5,-30,6,6
343,11,7,-9,11,5,-32,7,6
344,12,7,-8,11,6,-31,7,6
345,12,6,-6,11,6,-27,8,5
346,12,5,-4,10,6,-22,8,5
347,12,4,-2,9,6,-20,8,4
348,11,4,-2,8,6,-21,7,4
349,10,3,-2,6,5,-21,7,3
350,9,2,0,4,5,-19,6,2
351,7,1,1,3,4,-16,4,0
352,5,0,3,2,4,-12,3,-2
353,2,0,5,1,4,-9,1,-2
354,-1,-1,9,-1,4,-5,0,-3
355,-3,-2,13,-2,5,0,-1,-4
356,-4,-4,17,-2,5,4,-2,-4
357,-4,-5,19,-3,5,5,-3,-5
358,-4,-7,19,-3,5,3,-3,-5
359,-4,-8,20,-3,4,1,-4,-5
360,-5,-9,20,-3,3,1,-4,-5
361,-5,-10,19,-3,2,0,-4,-5
362,-5,-10,18,-3,1,-1,-4,-4
363,-4,-10,16,-3,1,-1,-4,-4
364,-3,-9,14,-2,1,-2,-4,-3
365,-2,-9,13,-2,1,0,-3,-1
366,-2,-7,14,-1,2,2,-3,1
367,-1,-6,16,1,3,4,-3,3
368,-1,-6,16,2,3,3,-2,4
369,0,-6,15,2,3,1,-1,5
370,0,-6,15,2,3,0,0,6
371,1,-7,14,2,3,1,1,6
372,1,-8,15,1,4,4,1,6
373,1,-8,15,0,4,6,2,5
374,2,-9,14,-2,3,6,3,4
375,2,-8,14,-2,3,6,3,4
376,2,-8,15,-2,3,7,4,4
377,2,-7,17,-2,3,9,4,4
378,2,-7,18,-2,3,11,5,4
379,2,-6,19,-3,3,12,5,5
380,2,-6,21,-4,4,14,5,6
381,2,-5,23,-4,4,17,5,6
382,2,-5,25,-5,4,21,5,6
383,2,-4,26,-5,5,24,5,7
384,1,-2,26,-5,5,25,5,8
385,0,1,26,-4,6,26,5,10
386,-1,3,27,-2,6,28,5,11
387,-2,5,30,-1,6,31,4,12
388,-3,7,31,0,5,34,4,13
389,-4,8,31,1,5,36,4,14
390,-4,9,31,2,5,37,4,14
391,-3,10,32,2,5,37,4,14
392,-2,10,32,3,5,35,4,14
393,-1,10,31,4,5,33,5,13
394,-1,11,30,4,4,31,5,12
395,-1,10,28,5,4,29,5,12
396,-2,10,30,5,3,31,4,11
397,-3,9,31,5,2,33,3,11
398,-5,8,31,4,2,33,2,10
399,-6,6,28,3,2,30,2,9
400,-6,4,26,2,2,28,1,8
401,-6,2,25,1,1,29,1,6
402,-5,0,23,0,1,30,0,5
403,-4,-1,21,-1,0,29,0,4
404,-3,-2,20,-1,0,27,0,4
405,-3,-3,22,-3,0,25,-1,4
406,-4,-3,23,-4,0,25,-2,3
407,-6,-3,23,-6,0,24,-4,3
408,-8,-2,22,-7,1,25,-5,3
409,-11,-1,22,-8,1,27,-6,3
410,-12,1,22,-8,1,29,-7,4
411,-13,2,23,-8,1,32,-7,4
412,-13,3,25,-7,1,34,-6,5
413,-13,4,26,-6,1,36,-5,5
414,-12,5,27,-5,2,37,-4,6
415,-10,6,25,-3,2,36,-4,6
416,-9,6,23,-3,2,35,-3,6
417,-7,6,22,-2,2,36,-3,6
418,-6,5,24,-2,1,39,-3,6
419,-5,4,25,-2,2,41,-3,6
420,-4,3,24,-2,2,38,-3,6
421,-4,2,24,-2,2,35,-3,5
422,-4,1,24,-2,3,33,-3,4
423,-4,0,23,-1,3,30,-3,3
424,-5,-1,20,-1,3,26,-3,3
425,-5,-1,17,-1,2,22,-3,2
426,-5,0,14,-1,2,18,-2,2
427,-5,1,13,-1,2,16,-2,2
428,-5,2,13,-2,2,14,-3,2
429,-6,2,11,-3,2,12,-4,2
430,-7,2,8,-5,2,12,-4,1
431,-8,2,6,-6,1,14,-4,0
432,-9,1,7,-7,-1,17,-5,-1
433,-10,1,9,-7,-2,20,-5,-1
434,-11,1,11,-7,-2,22,-6,-2
435,-12,1,14,-7,-2,22,-7,-1
436,-14,1,18,-8,-2,24,-9,-1
437,-16,2,21,-9,-1,27,-12,0
438,-18,2,23,-10,0,30,-14,1
439,-19,4,22,-10,1,31,-14,2
440,-18,5,19,-9,2,28,-13,2
441,-17,6,17,-8,3,26,-10,3
442,-15,6,15,-6,4,26,-7,3
443,-13,5,15,-4,4,26,-4,3
444,-12,4,15,-4,4,26,-3,3
445,-11,3,13,-3,4,23,-3,2
446,-11,2,10,-2,4,19,-2,0
447,-11,1,7,-2,3,16,-2,-1
448,-11,0,3,-1,4,13,-1,-2
449,-11,-1,-2,-1,3,10,-1,-2
450,-11,-1,-5,-1,3,8,-2,-2
451,-11,-1,-8,0,3,5,-2,-2
452,-11,-1,-8,1,3,2,-3,-2
453,-11,-2,-8,1,2,-1,-3,-2
454,-10,-2,-9,2,2,-4,-3,-3
455,-10,-3,-10,3,2,-6,-2,-4
456,-10,-4,-11,3,1,-6,-2,-5
457,-10,-5,-11,2,0,-5,-3,-6
458,-10,-6,-9,2,-2,-2,-4,-7
459,-10,-7,-8,2,-4,1,-5,-8
460,-11,-8,-7,1,-5,1,-6,-9
461,-11,-9,-7,1,-6,-2,-7,-9
462,-11,-10,-8,0,-6,-5,-8,-10
463,-11,-10,-10,-1,-5,-7,-9,-10
464,-12,-9,-10,-2,-4,-6,-10,-9
465,-13,-9,-9,-3,-3,-3,-11,-9
466,-14,-7,-9,-5,-2,0,-13,-8
467,-16,-6,-9,-7,-1,1,-15,-7
468,-17,-5,-8,-9,1,2,-16,-6
469,-18,-4,-8,-12,2,1,-16,-6
470,-17,-4,-8,-14,2,-1,-16,-7
471,-17,-4,-9,-15,2,-3,-16,-7
472,-17,-4,-9,-15,1,-3,-16,-9
473,-17,-5,-8,-14,-1,-1,-15,-10
474,-18,-6,-5,-13,-3,0,-15,-12
475,-18,-7,-4,-12,-4,0,-14,-12
476,-17,-8,-3,-10,-5,-3,-14,-13
477,-16,-9,-3,-8,-5,-5,-13,-12
478,-16,-9,-3,-7,-5,-7,-12,-11
479,-15,-8,-4,-6,-4,-10,-11,-10
480,-14,-6,-6,-5,-2,-12,-10,-8
481,-13,-5,-10,-4,-1,-16,-9,-6
482,-12,-4,-12,-3,-1,-17,-9,-4
483,-11,-3,-12,-2,0,-16,-8,-3
484,-10,-2,-11,-1,1,-14,-7,-2
485,-10,-1,-11,-1,1,-15,-6,-2
486,-10,-1,-12,-1,2,-18,-6,-2
487,-10,-2,-12,-1,2,-22,-5,-3
488,-10,-2,-11,-1,2,-23,-5,-3
489,-10,-3,-10,-1,2,-22,-4,-4
490,-10,-3,-9,0,2,-21,-4,-4
491,-11,-3,-9,0,2,-21,-5,-4
492,-11,-4,-9,-1,3,-21,-5,-4
493,-10,-4,-9,-1,3,-22,-6,-4
494,-9,-6,-10,0,4,-24,-6,-4
495,-8,-7,-12,0,4,-27,-5,-3
496,-7,-8,-13,1,4,-29,-4,-3
497,-6,-8,-13,1,4,-30,-4,-2
498,-5,-8,-13,0,4,-31,-3,-2
499,-6,-7,-14,-1,5,-32,-3,-2
500,-6,-6,-18,-2,5,-35,-4,-2
501,-7,-5,-22,-3,6,-39,-5,-2
502,-8,-3,-25,-4,6,-44,-6,-2
503,-8,-2,-26,-4,6,-48,-6,-1
504,-7,-1,-25,-3,6,-50,-6,-1
505,-6,0,-23,-2,6,-51,-6,0
506,-5,1,-22,0,6,-52,-5,1
507,-4,2,-22,2,6,-54,-4,1
508,-4,3,-22,4,5,-56,-3,2
509,-4,4,-22,5,5,-56,-3,2
510,-5,4,-23,5,5,-56,-4,3
511,-6,5,-26,5,5,-56,-5,3
512,-6,5,-28,5,5,-57,-4,3
513,-5,5,-30,5,5,-57,-4,3
514,-5,5,-30,6,6,-56,-3,3
515,-5,5,-29,6,5,-55,-3,2
516,-5,4,-29,7,5,-56,-4,2
517,-5,3,-31,7,5,-57,-4,2
518,-5,2,-33,7,5,-59,-4,2
519,-4,2,-35,7,5,-61,-4,2
520,-3,2,-36,7,5,-63,-3,3
521,-2,2,-37,8,5,-65,-2,3
522,-2,2,-36,9,5,-66,0,4
523,-1,3,-34,10,5,-62,1,4
524,-1,4,-31,10,4,-54,2,5
525,-1,4,-29,10,4,-47,3,5
526,-1,3,-28,9,3,-41,4,4
527,0,2,-27,9,2,-38,4,4
528,0,1,-25,8,2,-35,4,3
529,0,0,-24,7,1,-32,3,3
530,-1,0,-22,7,1,-28,3,3
531,-1,0,-22,7,0,-25,2,3
532,-1,0,-21,6,0,-21,1,3
533,-1,0,-18,6,-1,-16,0,3
534,-2,0,-14,5,-1,-11,-1,3
535,-2,0,-11,4,-2,-6,-2,3
536,-2,0,-11,3,-1,-4,-2,3
537,-2,-1,-12,3,-1,-2,-1,2
538,-2,-1,-13,2,-1,-2,-1,2
539,-2,0,-12,1,-2,1,-1,1
540,-2,0,-10,0,-2,6,-2,0
541,-3,-1,-7,-1,-3,10,-2,-1
542,-4,0,-5,-1,-2,11,-2,-2
543,-5,1,-5,-1,-1,11,-2,-2
544,-6,1,-4,-1,0,13,-3,-2
545,-7,2,-2,-1,1,16,-3,-2
546,-7,1,-1,-1,1,18,-3,-2
547,-7,1,-1,-1,1,18,-3,-3
548,-6,0,-1,-1,0,16,-3,-3
549,-5,-1,-1,-1,-1,15,-2,-3
550,-4,-1,0,-1,-1,14,-1,-3
551,-4,-1,1,0,-2,14,-1,-2
552,-4,-1,1,2,-2,13,0,-1
553,-4,-1,1,3,-3,13,0,0
554,-4,0,3,4,-3,14,1,1
555,-5,1,4,5,-3,16,1,2
556,-8,4,5,6,-3,18,1,3
557,-12,9,5,6,-2,18,0,4
558,-18,13,4,4,-2,18,0,4
559,-23,18,3,3,-3,17,-1,3
560,-26,20,3,1,-3,18,-2,3
561,-27,20,4,-1,-4,19,-3,2
562,-27,18,4,-2,-4,19,-4,1
563,-25,15,4,-2,-4,17,-4,0
564,-22,12,4,-2,-3,15,-4,-1
565,-19,10,4,-1,-2,15,-4,-2
566,-15,8,5,-1,-1,16,-3,-2
567,-11,5,5,-1,-1,17,-2,-3
568,-8,3,5,-1,0,16,-2,-2
569,-5,2,5,-2,0,17,-3,-2
570,-4,0,6,-3,0,19,-4,-1
571,-3,-1,5,-4,-1,19,-5,0
572,-3,-2,4,-6,-1,18,-7,0
573,-4,-1,3,-7,-1,16,-8,0
574,-5,-1,3,-7,-2,15,-8,0
575,-5,-1,3,-7,-2,15,-8,0
576,-6,-1,2,-6,-1,14,-8,-1
577,-6,-2,-1,-6,-1,12,-8,-1
578,-5,-4,-4,-6,-1,9,-8,-1
579,-4,-5,-4,-6,-1,7,-8,-1
580,-2,-5,-3,-6,-1,6,-7,-1
581,-1,-3,-2,-5,0,8,-7,1
582,1,-1,-2,-4,1,10,-6,2
583,2,1,-2,-3,1,10,-5,3
584,2,3,-3,-2,2,9,-4,4
585,2,4,-2,-1,2,9,-4,5
586,1,6,-1,0,3,10,-3,5
587,-1,7,1,1,3,11,-3,5
588,-2,7,2,2,2,10,-2,4
589,-2,6,2,2,2,10,-2,4
590,-2,5,3,2,1,13,-2,2
591,-2,4,3,2,0,18,-1,1
592,0,3,4,2,-1,22,0,0
593,2,3,3,2,-2,23,1,0
594,3,3,3,2,-1,24,2,0
595,4,5,4,3,-1,26,2,2
596,4,6,6,3,0,28,2,3
597,3,7,8,3,0,31,1,4
598,2,8,9,3,0,33,0,5
599,0,8,10,2,-1,36,-1,6
600,-2,8,11,2,-2,40,-1,6
601,-3,9,13,2,-2,46,0,6
602,-4,9,13,1,-3,49,0,5
603,-5,9,12,1,-3,50,0,3
604,-5,8,11,0,-3,48,1,2
605,-5,7,9,-1,-4,46,1,0
606,-4,6,10,-1,-4,46,1,-1
607,-4,5,12,-2,-5,49,2,-1
608,-3,4,14,-2,-5,53,2,0
609,-3,4,17,-1,-5,58,2,0
610,-4,5,20,-1,-5,64,2,1
611,-4,6,24,1,-5,72,3,2
612,-4,7,27,1,-5,79,4,2
613,-3,8,30,2,-5,86,4,2
614,-3,8,31,2,-5,92,5,2
615,-2,8,34,1,-5,99,5,1
616,-2,8,39,-1,-6,109,4,1
617,-2,7,43,-2,-7,118,4,0
618,-3,6,45,-2,-7,123,3,0
619,-4,5,42,-3,-6,119,2,-1
620,-5,5,35,-3,-5,106,0,-1
621,-5,4,24,-2,-4,85,-1,-1
622,-5,3,12,-2,-3,62,-3,-2
623,-5,2,3,-1,-3,40,-4,-2
624,-6,1,-2,-1,-2,27,-5,-1
625,-6,1,-2,-2,-2,23,-7,1
626,-7,2,1,-3,-1,23,-8,2
627,-7,3,2,-4,1,21,-9,3
628,-7,4,0,-4,2,16,-9,4
629,-6,5,-5,-3,4,7,-8,5
630,-4,6,-9,-3,4,-1,-7,5
631,-3,5,-11,-2,4,-4,-6,4
632,-1,4,-9,-2,3,-2,-5,4
633,0,3,-6,-2,2,4,-4,3
634,1,2,-4,-2,1,8,-4,2
635,1,2,-3,-2,1,8,-4,1
636,1,1,-2,-2,1,6,-4,1
637,1,2,-1,-2,1,6,-4,1
638,1,2,-2,-2,2,4,-5,0
639,1,2,-5,-2,2,2,-4,0
640,1,1,-9,-1,3,-3,-4,0
641,2,1,-10,0,3,-6,-3,-1
642,4,0,-11,1,3,-7,-1,-1
643,6,0,-10,2,4,-5,1,0
644,7,1,-10,3,4,-5,2,1
645,8,1,-12,4,4,-7,3,1
646,9,1,-16,5,4,-10,4,1
647,8,1,-18,5,3,-11,3,0
648,6,0,-16,4,2,-10,2,-1
649,5,0,-13,2,1,-9,1,-1
650,3,1,-11,1,1,-10,-1,-1
651,1,0,-10,-1,1,-11,-2,-1
652,-1,-1,-8,-2,1,-10,-3,0
653,-2,-2,-6,-4,1,-9,-5,-1
654,-3,-3,-4,-5,1,-8,-6,-1
655,-4,-4,-4,-6,1,-7,-7,-1
656,-4,-4,-4,-6,1,-6,-8,-1
657,-5,-4,-3,-7,1,-5,-8,-1
658,-5,-3,-4,-7,1,-5,-7,-1
659,-5,-2,-5,-7,1,-5,-7,-1
660,-5,-1,-6,-6,2,-5,-7,-1
661,-5,-1,-6,-6,2,-3,-7,0
662,-4,-1,-4,-6,3,-1,-7,-1
663,-4,-2,-2,-5,2,0,-6,-1
664,-4,-2,-2,-4,2,0,-5,-1
665,-4,-2,-3,-3,1,-2,-5,-2
666,-4,-2,-3,-2,1,-3,-4,-2
667,-3,-1,-3,-2,1,-3,-3,-3
668,-2,-1,-3,-1,1,-2,-2,-3
669,0,-1,-3,0,1,-1,-2,-3
670,0,-1,-3,0,0,1,-2,-3
671,0,-1,-1,-1,-1,4,-3,-3
672,-1,-1,1,-1,-2,7,-4,-3
673,-2,0,2,-2,-3,9,-6,-3
674,-2,1,1,-2,-3,8,-7,-2
675,-2,2,-1,-2,-3,7,-7,-1
676,-1,4,-1,-1,-3,7,-6,1
677,-1,6,0,0,-2,8,-5,2
678,0,7,1,1,-1,9,-4,2
679,-1,8,2,1,0,11,-4,2
680,-1,8,2,0,1,10,-5,2
681,-1,7,1,-2,1,8,-7,2
682,-2,6,2,-2,1,7,-8,1
683,-2,5,3,-3,0,7,-10,1
684,-3,5,4,-2,-1,8,-10,0
685,-4,6,5,-1,0,7,-10,0
686,-5,8,4,0,0,5,-8,0
687,-6,9,4,2,1,4,-6,0
688,-6,10,4,3,1,2,-4,0
689,-5,11,3,5,1,0,-3,1
690,-5,11,0,6,0,-3,-2,1
691,-4,11,-6,6,-1,-7,-2,1
692,-4,11,-11,6,-2,-8,-1,1
693,-4,10,-15,5,-2,-6,-1,1
694,-3,8,-17,4,-2,-5,0,1
695,-2,7,-18,3,-1,-6,0,1
696,-1,5,-18,3,-1,-9,1,1
697,1,4,-18,3,0,-10,1,1
698,3,4,-16,4,1,-9,2,1
699,5,4,-14,4,2,-8,3,1
700,7,4,-12,5,2,-7,3,1
701,7,4,-10,6,2,-8,4,0
702,8,2,-8,8,2,-10,5,0
703,9,0,-6,10,1,-11,6,-1
704,10,-2,-5,12,0,-10,7,-1
705,10,-3,-4,12,-1,-10,7,-2
706,9,-4,-4,11,-2,-11,6,-2
707,7,-5,-4,8,-3,-11,4,-2
708,5,-5,-3,5,-2,-10,1,-3
709,3,-5,-2,2,-2,-7,-2,-2
710,1,-5,-2,0,-2,-5,-4,-2
711,-1,-4,-4,-1,-1,-4,-6,-2
712,-1,-4,-4,-1,-1,-3,-6,-2
713,-2,-4,-4,-1,-2,-2,-6,-3
714,-2,-5,-6,-1,-2,-4,-5,-3
715,-2,-6,-9,-1,-1,-9,-4,-3
716,-1,-6,-11,0,-1,-16,-4,-3
717,0,-7,-13,1,-1,-19,-4,-3
718,1,-7,-14,2,0,-21,-4,-3
719,2,-7,-16,3,0,-23,-3,-2
720,3,-6,-18,5,0,-26,-2,-2
721,4,-5,-21,7,1,-31,-1,-1
722,5,-5,-24,8,2,-35,1,-1
723,6,-4,-25,9,2,-38,1,-2
724,7,-4,-26,9,3,-37,1,-2
725,8,-3,-26,9,4,-35,1,-2
726,9,-3,-28,8,4,-35,1,-3
727,9,-2,-31,8,4,-38,1,-3
728,10,-1,-30,8,4,-41,2,-3
729,10,0,-27,8,4,-40,2,-2
730,9,1,-24,8,4,-38,3,-2
731,9,1,-23,8,3,-35,4,-2
732,8,1,-21,7,2,-33,4,-3
733,6,0,-18,6,1,-29,4,-3
734,4,-1,-16,5,0,-26,3,-4
735,2,-3,-13,4,-1,-23,2,-5
736,0,-4,-11,3,-2,-23,0,-6
737,-2,-4,-11,2,-2,-23,-1,-6
738,-3,-3,-9,1,-1,-22,-2,-6
739,-4,-2,-8,0,-1,-19,-3,-6
740,-5,0,-7,0,0,-16,-3,-5
741,-5,2,-7,0,1,-15,-2,-4
742,-4,3,-9,0,1,-17,-2,-3
743,-3,4,-10,1,1,-18,-2,-2
744,-2,4,-10,1,1,-16,-2,-1
745,-1,4,-10,1,1,-12,-1,0
746,0,4,-10,1,1,-10,-1,0
747,0,4,-11,2,0,-10,0,1
748,0,5,-12,2,0,-11,1,0
749,0,5,-11,3,0,-10,1,0
750,1,4,-11,3,1,-10,1,1
751,1,4,-10,3,2,-10,0,1
752,2,3,-9,3,3,-9,-1,1
753,2,2,-8,2,3,-6,-3,2
754,1,1,-7,2,3,-3,-4,2
755,0,1,-6,2,3,-1,-5,1
756,-1,2,-5,2,2,0,-5,1
757,-1,3,-4,2,2,-1,-4,0
758,-1,4,-3,3,2,-3,-4,-1
759,-1,4,-1,3,2,-3,-4,-1
760,0,4,-1,3,2,-4,-4,-2
761,1,3,-1,3,2,-4,-4,-2
762,1,2,-2,3,2,-6,-4,-3
763,1,0,-2,3,2,-7,-5,-3
764,1,-1,0,3,2,-6,-5,-3
765,1,-1,2,3,2,-4,-5,-4
766,1,-1,4,2,2,-2,-4,-3
767,1,-1,5,2,1,0,-4,-3
768,1,0,7,2,1,4,-4,-2
769,0,1,12,2,1,13,-3,-1
770,-1,2,17,1,1,24,-3,-1
771,-2,3,21,1,1,35,-3,1
772,-3,4,25,-1,0,45,-4,1
773,-4,4,26,-2,0,51,-4,2
774,-4,5,25,-3,0,54,-5,2
775,-4,5,23,-4,-1,54,-5,3
776,-3,6,20,-3,-1,53,-4,3
777,-2,7,17,-2,-1,51,-4,3
778,-2,7,15,-1,0,46,-3,4
779,-1,7,17,1,0,42,-2,4
780,-1,6,19,2,0,42,-2,5
781,0,6,21,2,0,43,-2,5
782,0,5,20,2,0,42,-2,5
783,0,5,16,3,0,38,-3,6
784,-1,5,13,3,1,34,-3,6
785,-1,5,12,3,2,30,-3,6
786,-1,5,13,2,3,28,-4,6
787,-1,5,12,1,4,26,-4,6
788,-2,6,10,0,4,23,-5,5
789,-3,5,9,-1,4,22,-6,5
790,-3,5,9,-1,3,22,-6,4
791,-3,5,7,-1,3,22,-5,3
792,-3,5,5,0,2,19,-3,2
793,-2,5,3,1,2,15,-2,2
794,-2,4,2,1,2,11,-2,2
795,-2,3,1,1,2,8,-2,2
796,-2,2,2,1,2,7,-3,2
797,-2,1,3,1,1,6,-4,2
798,-2,1,2,0,1,4,-4,1
799,-2,-1,1,-1,1,4,-5,1
800,-2,-2,1,-2,1,6,-5,0
801,-2,-2,3,-3,1,9,-5,0
802,-2,-3,4,-4,1,12,-5,-1
803,-2,-3,5,-4,1,13,-5,0
804,-1,-3,4,-4,1,13,-4,0
805,0,-2,3,-3,2,13,-2,1
806,0,-1,1,-2,3,12,-1,1
807,0,0,-1,0,4,9,1,2
808,1,1,-2,1,4,6,2,2
809,1,1,-1,1,5,4,2,3
810,2,2,2,2,4,4,2,3
811,3,1,3,2,4,3,2,3
812,3,0,3,1,4,1,2,3
813,3,-1,3,1,4,-1,2,3
814,2,-1,2,0,4,-4,2,2
815,2,-2,2,-1,4,-6,1,2
816,1,-2,3,-2,4,-5,1,2
817,2,-2,3,-2,4,-4,0,1
818,2,-3,2,-3,5,-3,0,1
819,2,-3,1,-4,4,-4,0,-1
820,3,-3,1,-5,4,-4,0,-2
821,3,-4,1,-4,3,-4,1,-2
822,3,-4,0,-4,2,-4,1,-3
823,3,-5,-1,-3,2,-4,1,-3
824,2,-6,-1,-3,2,-7,0,-4
825,1,-6,0,-3,2,-10,-1,-3
826,1,-7,3,-3,2,-11,-2,-3
827,0,-7,6,-3,2,-9,-3,-3
828,0,-7,7,-3,1,-8,-3,-3
829,-1,-8,5,-4,1,-7,-4,-3
830,-2,-8,2,-5,1,-8,-4,-2
831,-2,-7,1,-5,0,-10,-3,-2
832,-4,-5,0,-5,0,-11,-2,-2
833,-6,-2,-1,-5,-1,-13,-1,-2
834,-9,2,-2,-5,-1,-14,-1,-2
835,-12,5,0,-5,-2,-14,-1,-2
836,-14,8,3,-5,-2,-11,-2,-2
837,-16,10,5,-6,-2,-8,-3,-2
838,-16,10,5,-6,-1,-8,-4,-3
839,-16,8,3,-7,-1,-8,-5,-3
840,-15,7,3,-7,-1,-8,-6,-4
841,-14,6,3,-7,-2,-8,-6,-4
842,-12,5,3,-7,-2,-8,-6,-5
843,-11,4,2,-7,-2,-9,-5,-5
844,-9,4,2,-6,-3,-10,-4,-4
845,-7,4,2,-5,-3,-9,-3,-4
846,-6,3,1,-4,-3,-8,-2,-4
847,-4,2,0,-3,-3,-8,-1,-4
848,-4,2,-2,-3,-3,-10,-1,-4
849,-3,1,-3,-3,-2,-13,-1,-4
850,-3,1,-4,-3,-2,-17,-1,-5
851,-3,0,-5,-3,-1,-18,-1,-5
852,-3,0,-6,-3,0,-18,-1,-5
853,-3,0,-8,-2,0,-21,0,-5
854,-3,0,-13,-1,1,-26,1,-5
855,-2,0,-17,0,2,-31,1,-4
856,-2,0,-19,1,2,-33,1,-3
857,-1,0,-19,2,2,-34,2,-2
858,0,-1,-19,3,3,-33,2,-1
859,0,-1,-18,2,2,-32,2,-1
860,-1,-1,-18,1,1,-30,2,-1
861,-2,-2,-16,0,0,-29,1,-2
862,-3,-3,-16,-2,-1,-28,0,-3
863,-4,-4,-16,-3,-1,-30,-1,-4
864,-4,-4,-18,-5,0,-31,-2,-5
865,-4,-4,-19,-6,0,-34,-2,-5
866,-5,-4,-18,-7,0,-34,-3,-6
867,-5,-4,-15,-7,-1,-33,-3,-7
868,-6,-5,-11,-7,-1,-30,-4,-7
869,-6,-5,-9,-7,-1,-28,-4,-7
870,-6,-6,-8,-7,-1,-26,-4,-7
871,-5,-5,-7,-6,-1,-23,-5,-6
872,-5,-4,-5,-6,-1,-16,-5,-5
873,-4,-3,-2,-5,-1,-8,-5,-5
874,-4,-2,-1,-5,-2,-1,-5,-5
875,-3,-2,0,-5,-2,3,-5,-5
876,-1,-2,1,-5,-2,7,-4,-5
877,0,-2,2,-5,-2,9,-3,-4
878,1,-2,4,-4,-1,10,-2,-4
879,2,-2,6,-3,-1,10,-1,-3
880,3,-2,7,-2,-1,8,0,-2
881,4,-2,7,0,0,9,2,-2
882,5,-3,8,1,0,11,3,-2
883,7,-3,8,2,0,14,4,-2
884,8,-4,8,3,-1,16,5,-3
885,8,-5,7,4,-1,17,6,-3
886,8,-5,5,4,-2,18,6,-4
887,7,-5,5,4,-2,20,5,-4
888,5,-5,4,2,-2,23,4,-4
889,3,-4,2,1,-2,23,3,-3
890,1,-4,0,-2,-2,21,1,-3
891,-1,-2,1,-3,-1,21,0,-2
892,-2,-2,5,-4,-1,27,0,-2
893,-3,-1,11,-3,-1,36,0,-2
894,-2,-1,17,-2,-1,45,1,-2
895,-2,-1,21,-1,-1,53,1,-2
896,-2,-1,23,-1,-1,59,1,-2
897,-2,-1,25,-1,-1,61,1,-3
898,-4,0,27,-1,-2,62,1,-3
899,-5,1,28,-2,-2,63,1,-3
900,-5,1,31,-3,-2,68,1,-2
901,-4,2,35,-3,-3,77,2,-2
902,-3,2,39,-2,-3,87,3,-2
903,-2,2,41,-1,-4,95,4,-2
904,-2,2,39,0,-4,95,5,-2
905,-2,2,33,0,-3,85,5,-3
906,-2,2,24,1,-3,69,6,-4
907,-2,3,18,1,-2,55,6,-4
908,-2,3,14,1,-1,46,7,-4
909,-1,3,11,1,1,40,7,-4
910,0,3,7,1,2,35,7,-4
911,1,2,2,1,2,26,7,-4
912,2,1,-3,2,3,17,6,-4
913,3,1,-6,2,3,9,6,-4
914,4,1,-7,3,3,4,7,-4
915,6,1,-6,5,3,2,7,-3
916,7,1,-6,6,3,0,8,-2
917,7,1,-6,6,4,-1,8,-2
918,7,1,-6,6,4,-1,7,-2
919,6,1,-6,5,3,-1,7,-2
920,6,1,-5,4,2,1,6,-2
921,6,1,-4,3,1,3,6,-2
922,6,0,-3,2,1,5,5,-1
923,5,0,0,2,0,8,4,-1
924,5,-1,3,3,0,10,4,-1
925,5,-2,3,3,0,9,4,0
926,5,-2,2,4,1,6,4,0
927,6,-2,1,5,1,3,4,0
928,7,-2,0,5,2,1,4,0
929,6,-1,-2,5,1,-3,4,0
930,6,-1,-3,5,1,-7,3,0
931,6,0,-5,5,1,-10,3,0
932,6,0,-6,4,1,-12,3,0
933,6,0,-6,4,1,-13,3,-1
934,7,-1,-5,4,1,-12,2,-1
935,7,-1,-4,3,1,-12,2,-1
936,8,-2,-4,3,1,-12,2,0
937,8,-3,-4,3,1,-13,1,0
938,7,-4,-4,2,1,-11,0,-1
939,7,-5,-4,2,0,-10,-1,-1
940,7,-5,-4,1,0,-10,-1,-2
941,6,-6,-6,1,-1,-11,-1,-2
942,7,-6,-7,1,-1,-12,-1,-3
943,7,-6,-6,0,-1,-14,-1,-3
944,6,-5,-5,0,-1,-15,-1,-3
945,5,-5,-5,-1,-1,-16,-1,-3
946,4,-5,-6,-2,-1,-18,-2,-4
947,2,-6,-8,-3,-2,-21,-3,-4
948,0,-6,-9,-4,-2,-21,-4,-5
949,-2,-7,-9,-5,-3,-20,-6,-6
950,-3,-8,-9,-7,-4,-18,-7,-6
951,-4,-8,-8,-9,-4,-16,-8,-6
952,-5,-7,-7,-10,-5,-15,-9,-6
953,-5,-7,-6,-11,-4,-13,-10,-5
954,-6,-5,-4,-11,-3,-13,-9,-4
955,-7,-4,-3,-11,-2,-14,-9,-3
956,-7,-4,-2,-11,-1,-15,-8,-2
957,-8,-3,-3,-10,0,-16,-8,-2
958,-8,-2,-4,-10,0,-15,-8,-2
959,-8,-2,-6,-9,-1,-12,-7,-2
960,-6,-1,-6,-9,-1,-10,-7,-2
961,-5,-1,-7,-8,-2,-9,-6,-2
962,-3,-1,-7,-7,-2,-11,-6,-2
963,-2,-2,-5,-7,-2,-11,-6,-1
964,-1,-2,-3,-6,-2,-10,-6,-1
965,-1,-2,-2,-6,-1,-9,-6,0
966,-1,-1,-3,-5,-1,-9,-7,1
967,-2,-1,-3,-5,0,-12,-8,2
968,-1,0,-3,-4,1,-15,-8,2
969,0,-1,-3,-4,1,-16,-7,2
970,1,-2,-2,-4,1,-16,-7,2
971,2,-3,-1,-4,0,-13,-6,1
972,3,-4,-1,-3,0,-11,-5,0
973,4,-5,-1,-3,0,-9,-4,0
974,5,-5,-1,-3,1,-9,-4,0
975,5,-5,-2,-4,2,-9,-4,0
976,5,-5,-2,-4,3,-11,-4,1
977,6,-5,-3,-4,4,-14,-4,1
978,6,-6,-2,-4,4,-14,-3,0
979,7,-6,2,-4,4,-11,-3,-1
980,7,-6,5,-4,4,-8,-2,-1
981,7,-6,6,-3,3,-7,-2,-2
982,7,-6,4,-3,2,-7,-1,-3
983,6,-6,3,-3,1,-6,-1,-4
984,6,-6,4,-2,0,-3,-2,-4
985,6,-6,5,-2,-1,-2,-2,-5
986,5,-6,4,-2,-1,-4,-2,-5
987,5,-6,4,-1,-1,-7,-2,-4
988,6,-6,4,0,-1,-8,-1,-4
989,6,-6,4,1,-1,-6,0,-3
990,7,-5,3,1,0,-5,1,-2
991,7,-4,1,1,1,-6,2,-2
992,8,-3,-2,2,2,-8,2,-1
993,7,-3,-3,2,2,-10,2,-1
994,7,-4,-4,3,2,-11,3,-1
995,7,-5,-3,2,1,-10,3,-1
996,7,-6,-1,2,1,-7,3,-1
997,8,-7,-1,1,0,-7,3,-2
998,8,-7,-3,1,-1,-10,4,-3
999,8,-6,-4,1,0,-12,5,-3
1000,8,-5,-6,2,1,-14,6,-3
1001,8,-4,-6,3,2,-13,6,-3
1002,7,-2,-6,4,2,-12,7,-2
1003,6,-1,-6,4,1,-12,7,-1
1004,5,0,-4,4,1,-10,6,0
1005,5,0,-2,3,1,-7,5,1
1006,4,0,-1,2,1,-5,4,2
1007,4,1,-1,1,2,-4,3,2
1008,3,1,-2,1,2,-7,2,3
1009,3,1,-3,0,3,-10,2,3
1010,2,2,-3,0,3,-10,1,3
1011,2,2,-1,0,3,-8,1,4
1012,1,3,1,0,3,-6,1,3
1013,1,3,2,-1,3,-6,0,3
1014,0,3,3,-2,3,-6,0,2
1015,-1,2,4,-3,3,-5,-1,1
1016,-2,1,5,-4,3,-6,-2,0
1017,-3,1,5,-5,3,-6,-3,0
1018,-4,0,5,-5,4,-7,-4,0
1019,-5,-1,6,-5,5,-6,-4,0
1020,-5,-1,8,-5,7,-5,-4,0
1021,-6,-1,9,-5,9,-5,-4,0
1022,-6,-1,9,-5,10,-6,-4,0
1023,-6,-1,8,-5,10,-8,-4,0
1024,-6,-2,7,-5,10,-9,-4,-1
1025,-6,-3,7,-5,8,-8,-4,-2
1026,-6,-4,8,-5,7,-7,-3,-3
1027,-6,-4,8,-5,5,-7,-3,-5
1028,-5,-5,7,-4,4,-9,-1,-6
1029,-4,-5,5,-4,4,-10,0,-6
1030,-3,-4,4,-5,3,-7,1,-6
1031,-2,-4,2,-5,3,-5,2,-6
1032,-1,-4,0,-5,2,-5,3,-5
1033,0,-3,-3,-4,2,-6,3,-5
1034,1,-3,-5,-3,1,-8,4,-4
1035,2,-2,-5,-2,1,-7,4,-3
1036,2,-1,-4,-1,1,-5,5,-3
1037,2,0,-3,1,2,-3,6,-2
1038,2,1,-1,2,3,-1,6,-1
1039,1,2,1,2,4,0,5,0
1040,1,2,4,2,4,1,4,1
1041,0,2,6,1,4,3,3,1
1042,0,2,6,0,4,4,1,0
1043,-1,2,6,-1,4,5,0,-1
1044,-2,1,3,-2,3,4,-2,-1
1045,-3,0,2,-3,3,3,-2,-2
1046,-2,-1,2,-2,3,4,-2,-2
1047,0,-2,2,-1,3,4,-2,-2
1048,2,-2,2,0,4,3,-1,-1
1049,4,-2,0,1,4,0,0,0
1050,5,-2,-1,2,5,-3,1,1
1051,6,-1,-1,3,5,-3,1,1
1052,6,-1,0,3,5,-3,1,1
1053,6,0,0,3,5,-2,2,2
1054,7,1,0,4,4,-2,3,2
1055,8,1,1,4,4,0,4,1
1056,8,1,3,4,4,2,5,1
1057,8,1,6,5,4,3,5,1
1058,7,1,6,4,4,0,5,1
1059,7,1,5,4,4,-4,6,0
1060,6,1,4,4,4,-6,6,0
1061,5,2,3,3,4,-6,6,0
1062,4,2,2,2,4,-5,6,0
1063,3,2,2,1,3,-5,5,0
1064,1,2,1,0,3,-8,4,0
1065,0,1,0,-1,2,-9,3,-1
1066,-1,0,1,-2,2,-8,2,-1
1067,-1,-2,2,-2,1,-6,1,-2
1068,-1,-4,1,-3,0,-6,1,-2
1069,-2,-5,0,-3,-1,-8,0,-3
1070,-2,-6,-1,-3,-1,-10,0,-4
1071,-2,-7,0,-2,-1,-12,0,-4
1072,-2,-7,-1,-1,-1,-14,0,-4
1073,-2,-7,-3,-1,-1,-16,0,-5
1074,-2,-7,-6,-1,-2,-19,1,-5
1075,-2,-7,-9,-1,-2,-21,1,-6
1076,-1,-8,-11,-2,-2,-23,1,-6
1077,0,-9,-15,-2,-3,-26,1,-6
1078,1,-9,-18,-2,-4,-31,2,-6
1079,2,-9,-21,-1,-5,-36,2,-6
1080,2,-8,-23,0,-6,-38,3,-4
1081,3,-6,-23,1,-6,-38,4,-3
1082,4,-4,-20,3,-6,-34,5,-1
1083,5,-1,-16,4,-6,-29,6,1
1084,6,1,-12,5,-5,-23,7,2
1085,6,4,-10,6,-4,-18,8,3
1086,6,6,-9,7,-2,-14,9,5
1087,5,7,-8,7,0,-12,9,6
1088,5,8,-8,8,1,-10,10,7
1089,5,9,-7,9,3,-9,10,7
1090,5,9,-7,9,4,-8,10,7
1091,4,8,-4,8,4,-5,9,6
1092,3,8,0,7,4,1,9,5
1093,1,8,4,5,3,8,8,4
1094,-2,8,6,4,3,11,7,3
1095,-3,8,6,3,3,11,6,2
1096,-4,8,7,2,3,11,6,2
1097,-5,7,9,1,2,14,5,1
1098,-4,6,13,-1,2,18,4,1
1099,-4,5,15,-2,2,21,3,1
1100,-3,4,15,-2,1,20,1,1
1101,-3,3,14,-3,0,19,0,0
1102,-2,2,14,-3,0,17,-1,0
1103,-2,1,12,-3,0,14,-2,0
1104,-1,0,10,-2,0,12,-2,0
1105,1,-1,7,-1,1,9,-1,1
1106,2,-2,3,1,2,5,-1,1
1107,2,-2,0,3,2,2,0,1
1108,3,-2,-3,4,3,-2,1,2
1109,3,-1,-5,6,3,-4,2,1
1110,3,0,-7,6,2,-7,3,1
1111,4,1,-8,7,2,-10,4,0
1112,4,2,-10,7,3,-12,5,0
1113,4,3,-11,8,3,-13,6,-1
1114,4,3,-12,7,3,-13,6,-1
1115,4,4,-12,7,3,-12,6,-1
1116,3,3,-10,6,3,-9,6,-1
1117,2,3,-6,5,3,-3,6,-1
1118,0,3,-2,4,3,1,5,-1
1119,-1,3,-1,4,2,1,5,-1
1120,-3,4,-2,4,3,-1,5,0
1121,-3,3,-3,4,3,-3,5,0
1122,-3,3,-2,4,3,-3,6,1
1123,-1,2,-2,4,3,-2,7,1
1124,1,1,-4,4,3,-2,8,1
1125,2,1,-8,4,2,-3,8,1
1126,4,0,-9,3,1,-3,8,1
1127,4,0,-8,3,0,-1,7,2
1128,4,0,-8,2,-1,-1,6,2
1129,3,1,-9,3,-2,-3,5,2
1130,2,1,-11,4,-2,-5,4,1
1131,1,2,-14,5,-3,-7,3,1
1132,0,2,-16,7,-3,-9,3,0
1133,0,1,-18,7,-3,-11,3,-1
1134,1,1,-18,8,-3,-12,3,-1
1135,2,1,-18,7,-3,-13,3,-1
1136,3,0,-19,7,-3,-17,3,-1
1137,4,0,-19,7,-3,-19,3,-2
1138,3,-1,-18,6,-4,-18,2,-2
1139,3,-1,-16,5,-4,-14,1,-3
1140,2,-2,-15,3,-4,-10,0,-4
1141,2,-4,-16,2,-5,-7,-1,-5
1142,1,-4,-16,1,-6,-5,-1,-6
1143,1,-4,-14,1,-7,-3,-1,-6
1144,0,-3,-12,2,-7,-3,-1,-6
1145,-1,-2,-11,2,-6,-5,-1,-5
1146,-2,-2,-12,2,-6,-9,-1,-5
1147,-3,-2,-12,2,-5,-10,-2,-5
1148,-3,-2,-12,1,-5,-8,-2,-4
1149,-3,-4,-11,1,-5,-5,-3,-4
1150,-3,-5,-11,0,-6,-3,-3,-4
1151,-3,-6,-11,-1,-7,-2,-4,-4
1152,-3,-6,-10,-3,-7,-1,-4,-4
1153,-4,-5,-9,-4,-7,2,-4,-4
1154,-5,-4,-8,-5,-6,3,-4,-4
1155,-6,-3,-9,-6,-6,3,-4,-4
1156,-7,-3,-10,-7,-6,2,-5,-4
1157,-6,-2,-10,-7,-6,2,-5,-4
1158,-5,-2,-9,-7,-6,3,-5,-4
1159,-4,-2,-8,-8,-5,4,-5,-4
1160,-4,-2,-8,-8,-4,4,-5,-4
1161,-3,-2,-8,-8,-3,2,-4,-3
1162,-2,-2,-6,-8,-1,2,-4,-3
1163,-2,-2,-3,-8,0,4,-3,-2
1164,-2,-1,0,-7,1,7,-3,-2
1165,-2,-1,1,-6,1,9,-3,-1
1166,-3,-1,2,-5,1,10,-2,-1
1167,-3,0,3,-4,1,11,-3,-1
1168,-3,1,5,-3,1,12,-3,-1
1169,-2,2,7,-2,1,15,-3,0
1170,-1,3,9,-1,1,17,-2,0
1171,0,4,9,1,1,18,-1,1
1172,1,4,10,2,1,18,0,1
1173,2,5,11,3,2,20,1,1
1174,2,5,13,3,3,22,2,2
1175,2,6,14,2,4,25,2,2
1176,2,6,15,2,5,26,2,3
1177,2,7,16,1,5,27,2,3
1178,2,6,18,0,4,29,1,3
1179,3,5,20,0,3,33,1,3
1180,3,4,22,0,3,37,1,3
1181,3,3,22,0,2,41,0,3
1182,2,2,20,0,1,42,-1,2
1183,1,1,20,0,0,43,-1,2
1184,0,1,21,0,-1,45,-2,2
1185,-1,1,24,-1,-1,48,-2,1
1186,-1,2,27,-2,-1,52,-2,1
1187,0,2,29,-3,-2,56,-2,1
1188,1,2,30,-3,-2,61,-2,1
1189,2,2,32,-4,-4,69,-3,1
1190,2,2,33,-4,-5,77,-3,2
1191,2,1,34,-4,-5,81,-3,2
1192,2,1,34,-4,-5,80,-3,2
1193,2,1,33,-4,-5,76,-3,2
1194,1,0,32,-5,-4,71,-3,1
1195,1,-1,29,-5,-3,63,-3,0
1196,1,-2,24,-5,-2,53,-3,-1
1197,2,-2,17,-5,-1,40,-3,-1
1198,2,-2,11,-5,0,29,-4,-2
1199,3,-2,7,-5,0,23,-5,-2
1200,4,-2,6,-4,-1,19,-4,-2
1201,4,-2,6,-4,-2,16,-4,-2
1202,4,-2,5,-4,-2,12,-3,-2
1203,3,-2,6,-4,-1,9,-2,-2
1204,2,-3,7,-5,-1,6,-2,-2
1205,1,-3,7,-6,0,4,-2,-2
1206,1,-2,6,-6,0,2,-2,-2
1207,1,-2,3,-7,0,2,-2,-2
1208,0,-1,2,-7,0,2,-2,-2
1209,0,-1,2,-8,0,2,-2,-2
1210,-1,-1,2,-7,1,0,-2,-2
1211,-2,-2,1,-7,2,-4,-2,-2
1212,-2,-2,-1,-6,2,-8,-2,-2
1213,-2,-1,-2,-5,3,-11,-2,-2
1214,-2,-1,-1,-5,3,-12,-2,-2
1215,-1,0,-2,-5,3,-12,-2,-1
1216,-1,0,-3,-5,3,-11,-2,-1
1217,0,-1,-5,-5,2,-12,-2,-1
1218,0,-2,-5,-5,2,-15,-2,-1
1219,1,-3,-5,-4,2,-16,-1,-1
1220,1,-5,-4,-4,1,-17,-1,-2
1221,1,-6,-4,-3,1,-17,0,-3
1222,2,-6,-5,-2,1,-17,1,-4
1223,2,-6,-6,-1,0,-19,1,-4
1224,1,-6,-7,0,0,-19,1,-4
1225,1,-5,-6,1,1,-20,0,-3
1226,1,-4,-6,2,1,-22,0,-2
1227,1,-4,-8,4,2,-28,-1,-1
1228,2,-4,-12,4,3,-36,-1,-1
1229,2,-5,-17,4,3,-42,-2,-1
1230,2,-5,-20,4,3,-46,-2,-2
1231,2,-5,-21,2,3,-46,-2,-2
1232,1,-4,-21,1,3,-45,-2,-2
1233,0,-3,-20,0,2,-45,-2,-2
1234,-1,-2,-18,-2,2,-44,-2,-1
1235,-2,-1,-15,-3,1,-41,-3,-1
1236,-3,0,-11,-4,1,-37,-4,-1
1237,-4,0,-9,-5,-1,-33,-5,-1
1238,-4,0,-11,-5,-2,-31,-5,-2
1239,-3,0,-16,-3,-3,-31,-3,-2
1240,-1,0,-20,-1,-4,-33,1,-2
1241,2,-1,-24,2,-4,-36,4,-2
1242,4,-1,-26,3,-4,-40,7,-2
1243,4,-2,-26,4,-4,-45,8,-2
1244,3,-2,-25,5,-3,-46,8,-2
1245,1,-2,-23,5,-3,-45,8,-2
1246,-1,-1,-22,4,-4,-42,8,-1
1247,-2,0,-24,4,-4,-40,7,-1
1248,-3,1,-26,5,-4,-40,7,0
1249,-4,1,-26,5,-4,-39,6,0
1250,-4,1,-24,5,-4,-37,5,1
1251,-4,1,-21,5,-4,-36,5,1
1252,-4,1,-19,5,-3,-35,4,1
1253,-4,1,-18,4,-2,-34,2,2
1254,-5,2,-18,4,-1,-33,1,3
1255,-7,3,-19,3,-1,-30,-1,3
1256,-8,4,-19,3,0,-27,-2,4
1257,-9,4,-20,2,-1,-26,-3,3
1258,-9,4,-20,0,-1,-25,-3,3
1259,-10,4,-19,-1,-1,-26,-4,2
1260,-10,3,-19,-3,-2,-25,-5,2
1261,-10,3,-18,-4,-2,-24,-6,1
1262,-11,3,-17,-6,-1,-23,-6,1
1263,-11,2,-14,-7,0,-23,-6,1
1264,-12,1,-10,-8,0,-22,-6,0
1265,-11,0,-5,-8,0,-18,-7,-1
1266,-11,-1,0,-8,0,-13,-7,-2
1267,-10,-2,2,-8,-1,-8,-7,-2
1268,-10,-3,1,-8,-1,-6,-7,-2
1269,-9,-3,-1,-7,-2,-7,-6,-2
1270,-8,-3,-2,-7,-3,-8,-6,-3
1271,-8,-3,-2,-6,-3,-9,-6,-3
1272,-8,-3,-1,-6,-3,-9,-5,-3
1273,-8,-3,-1,-5,-3,-10,-5,-3
1274,-7,-2,-1,-5,-3,-12,-4,-2
1275,-7,-2,-1,-5,-2,-13,-3,-2
1276,-6,-1,1,-5,-1,-11,-3,-1
1277,-6,-1,3,-4,0,-9,-2,-1
1278,-6,-1,3,-4,0,-6,-2,-1
1279,-6,-1,2,-3,0,-5,-2,0
1280,-6,0,1,-1,0,-5,-2,1
1281,-7,2,0,0,1,-5,-1,2
1282,-7,3,-1,2,1,-6,-1,2
1283,-8,4,0,2,2,-5,-2,3
1284,-9,5,2,1,2,-4,-3,2
1285,-10,4,6,0,2,0,-4,1
1286,-11,4,9,-1,1,3,-4,0
1287,-10,4,10,0,1,5,-4,-1
1288,-9,3,8,1,-1,4,-2,-1
1289,-8,3,5,2,-1,2,-1,-1
1290,-6,1,2,3,-1,-1,1,-1
1291,-6,0,0,3,-1,-3,2,-1
1292,-5,-1,-1,3,-1,-4,2,-1
1293,-5,-2,-2,2,-1,-6,2,-1
1294,-5,-2,-4,1,-1,-10,3,-1
1295,-5,-3,-6,1,-1,-13,3,-2
1296,-5,-3,-6,0,-1,-14,2,-2
1297,-6,-4,-5,-1,-1,-13,0,-3
1298,-7,-5,-5,-2,-2,-13,-2,-4
1299,-8,-5,-5,-3,-2,-14,-3,-4
1300,-9,-6,-5,-3,-3,-14,-4,-5
1301,-10,-7,-3,-4,-4,-10,-5,-6
1302,-11,-8,-2,-5,-5,-7,-6,-6
1303,-12,-8,-1,-7,-5,-6,-7,-7
1304,-13,-8,-1,-7,-5,-8,-8,-6
1305,-13,-7,-1,-8,-4,-10,-9,-6
1306,-13,-7,-1,-8,-3,-11,-9,-6
1307,-13,-7,-1,-8,-2,-10,-10,-5
1308,-12,-7,-2,-7,-2,-10,-9,-6
1309,-11,-7,-3,-7,-1,-10,-8,-6
1310,-11,-7,-3,-7,-1,-11,-7,-6
1311,-11,-7,-2,-7,0,-10,-7,-7
1312,-12,-7,1,-8,-1,-9,-7,-7
1313,-13,-6,3,-8,-1,-7,-8,-7
1314,-14,-7,4,-9,-3,-7,-9,-8
1315,-15,-7,4,-9,-5,-7,-10,-8
1316,-16,-8,4,-10,-7,-5,-11,-9
1317,-16,-10,5,-11,-8,0,-11,-9
1318,-16,-11,6,-11,-9,4,-12,-10
1319,-16,-11,7,-12,-10,6,-12,-11
1320,-17,-11,6,-13,-10,4,-12,-12
1321,-18,-11,6,-14,-10,0,-13,-13
1322,-19,-11,7,-16,-11,-3,-14,-13
1323,-19,-11,7,-16,-11,-4,-15,-13
1324,-20,-11,7,-16,-11,-4,-15,-12
1325,-19,-11,5,-15,-11,-3,-15,-12
1326,-18,-10,4,-14,-12,0,-14,-10
1327,-17,-9,4,-13,-12,5,-13,-8
1328,-15,-8,6,-12,-11,10,-13,-7
1329,-14,-7,8,-12,-11,14,-13,-5
1330,-13,-6,8,-11,-10,15,-13,-5
1331,-12,-5,8,-11,-9,15,-14,-4
1332,-12,-4,11,-10,-7,16,-14,-3
1333,-12,-2,14,-9,-7,18,-13,-2
1334,-12,-1,16,-8,-6,18,-12,-1
1335,-12,0,17,-7,-5,17,-11,0
1336,-12,1,18,-6,-5,17,-11,1
1337,-12,2,20,-7,-4,18,-11,1
1338,-12,2,21,-8,-4,20,-12,0
1339,-13,2,22,-9,-3,21,-13,0
1340,-13,2,23,-10,-3,23,-14,0
1341,-14,1,25,-10,-3,25,-15,0
1342,-13,1,26,-9,-3,28,-14,0
1343,-12,1,27,-8,-3,30,-13,0
1344,-11,1,26,-7,-3,30,-11,0
1345,-9,1,24,-6,-3,29,-9,0
1346,-8,0,22,-6,-3,27,-8,-1
1347,-7,-1,20,-6,-3,28,-7,-1
1348,-7,-2,18,-6,-3,28,-7,0
1349,-7,-2,16,-6,-2,27,-7,0
1350,-7,-2,14,-6,-1,27,-7,1
1351,-8,-1,13,-6,0,27,-7,1
1352,-9,-1,12,-6,1,27,-7,2
1353,-9,-1,10,-6,1,25,-7,2
1354,-8,-1,8,-6,1,22,-8,2
1355,-6,-1,7,-5,0,18,-8,2
1356,-3,-2,6,-4,0,14,-7,2
1357,-1,-2,5,-4,0,12,-6,2
1358,0,-3,4,-3,0,13,-5,1
1359,1,-3,4,-3,1,16,-5,1
1360,1,-2,4,-4,1,17,-5,1
1361,0,-2,2,-4,1,16,-6,2
1362,0,-1,1,-4,1,14,-6,2
1363,-1,-1,3,-3,0,13,-7,1
1364,-1,-1,4,-3,-1,14,-7,0
1365,-1,-1,3,-3,-1,13,-7,0
1366,-1,-1,1,-3,-1,10,-6,0
1367,-1,-1,-1,-3,0,8,-6,0
1368,-1,0,-1,-3,0,11,-6,0
1369,0,-1,1,-3,1,16,-6,1
1370,1,-1,3,-3,1,20,-5,1
1371,1,-1,4,-3,1,21,-5,2
1372,2,0,6,-2,1,21,-4,2
1373,2,0,7,-1,1,21,-3,3
1374,3,0,7,-1,1,20,-2,4
1375,3,0,6,1,1,19,-1,4
1376,4,-1,6,2,1,21,1,4
1377,5,-1,7,3,2,24,2,3
1378,6,-2,6,3,2,25,2,3
1379,7,-1,1,3,3,18,2,3
1380,8,-1,-6,4,3,6,1,4
1381,8,1,-14,4,3,-8,0,4
1382,7,2,-19,5,2,-19,0,5
1383,7,3,-22,5,2,-25,-1,5
1384,6,4,-23,4,2,-26,-1,5
1385,6,3,-23,4,2,-25,-1,5
1386,6,2,-24,5,2,-25,-1,4
1387,6,1,-25,5,2,-26,0,3
1388,7,0,-22,6,1,-26,0,2
1389,8,0,-19,6,1,-24,1,2
1390,8,-1,-17,5,0,-24,1,2
1391,9,-1,-17,4,1,-26,1,2
1392,9,-2,-17,3,1,-28,1,2
1393,8,-2,-15,2,2,-29,0,2
1394,8,-2,-12,1,2,-27,-1,2
1395,8,-2,-9,0,2,-24,-2,2
1396,7,-2,-8,-1,3,-22,-3,2
1397,7,-3,-7,-1,3,-20,-4,2
1398,6,-3,-7,-2,3,-17,-5,2
1399,5,-3,-7,-3,3,-14,-6,2
1400,4,-3,-6,-4,3,-12,-7,2
1401,3,-3,-7,-4,3,-10,-7,1
1402,1,-3,-7,-5,3,-8,-8,1
1403,1,-3,-7,-5,3,-6,-9,2
1404,1,-2,-8,-4,4,-6,-8,2
1405,1,-2,-8,-2,4,-7,-5,3
1406,3,-1,-9,0,4,-9,-3,4
1407,6,0,-12,2,4,-11,1,4
1408,8,1,-13,4,4,-12,3,4
1409,10,0,-13,5,4,-10,5,4
1410,11,0,-10,6,4,-7,6,4
1411,12,0,-7,7,4,-3,6,3
1412,12,0,-3,8,4,-2,7,3
1413,12,0,0,8,5,0,8,2
1414,12,-1,3,8,5,6,8,2
1415,12,-1,5,7,4,11,8,1
1416,11,-1,4,6,3,13,8,1
1417,10,-1,1,6,2,10,8,0
1418,9,-1,-3,6,1,5,8,-1
1419,8,-1,-4,6,0,4,7,-1
1420,7,-1,-4,6,-1,5,6,-1
1421,6,-1,-3,6,-1,7,5,-1
1422,5,0,-4,6,-1,7,4,0
1423,4,1,-5,4,0,7,2,0
1424,3,2,-5,2,0,7,1,0
1425,1,3,-5,0,0,8,-1,0
1426,0,2,-5,-1,1,9,-2,-1
1427,0,2,-4,-2,2,10,-2,-2
1428,0,1,-1,-1,2,12,-1,-2
1429,2,1,2,0,3,15,0,-3
1430,3,1,3,1,3,15,0,-3
1431,5,0,1,2,3,12,1,-3
1432,6,-1,1,3,3,8,2,-3
1433,7,-3,0,3,3,7,3,-4
1434,7,-4,0,3,3,8,4,-4
1435,7,-5,-2,4,3,8,4,-4
1436,6,-5,-5,4,2,7,5,-5
1437,5,-5,-9,3,1,5,4,-5
1438,4,-5,-12,3,-1,4,4,-6
1439,3,-4,-15,2,-1,4,3,-6
1440,3,-3,-17,2,-2,3,3,-6
1441,2,-2,-16,2,-2,3,2,-6
1442,1,0,-14,2,-2,5,2,-5
1443,0,1,-11,2,-1,8,2,-4
1444,0,3,-7,3,-1,12,3,-3
1445,0,4,-6,4,0,14,3,-2
1446,1,6,-6,4,1,15,3,-2
1447,0,7,-8,4,1,13,2,-1
1448,-2,7,-10,3,2,11,1,-1
1449,-4,7,-10,2,1,9,-1,-2
1450,-5,7,-8,1,1,10,-2,-2
1451,-6,7,-6,1,1,13,-2,-2
1452,-7,7,-5,1,0,16,-2,-2
1453,-7,7,-6,1,0,16,-2,-2
1454,-6,7,-7,1,0,16,-1,-1
1455,-5,7,-7,2,-1,16,1,-1
1456,-4,6,-5,3,-1,17,2,-1
1457,-3,5,-4,3,-1,17,2,-1
1458,-2,3,-5,3,-2,13,2,-1
1459,0,2,-6,5,-2,9,4,-1
1460,3,2,-7,7,-3,8,6,0
1461,6,3,-8,10,-3,7,9,0
1462,9,3,-9,12,-4,4,11,1
1463,12,4,-9,14,-4,1,13,1
1464,14,4,-8,14,-4,0,13,1
1465,15,4,-5,14,-4,2,13,2
1466,17,3,-4,13,-3,5,13,2
1467,19,2,-3,13,-2,6,14,2
1468,21,1,-2,13,-1,6,15,2
1469,22,1,-1,13,-1,7,16,2
1470,23,1,1,14,0,9,16,2
1471,24,1,2,14,0,10,17,2
1472,24,2,2,14,1,10,17,3
1473,25,2,1,13,1,9,17,3
1474,26,3,2,13,2,9,17,3
1475,26,4,4,13,2,8,16,4
1476,25,5,6,12,3,9,16,4
1477,25,6,7,13,4,10,16,4
1478,24,6,6,13,4,11,16,5
1479,24,6,5,13,3,11,15,5
1480,23,6,5,12,1,11,14,5
1481,21,6,5,11,0,10,12,4
1482,20,5,4,10,-1,7,10,4
1483,18,5,2,8,-1,4,7,4
1484,16,4,1,6,-2,2,6,3
1485,15,3,2,5,-2,2,5,2
1486,14,3,2,4,-2,2,4,1
1487,12,3,2,4,-3,2,3,1
1488,10,2,2,3,-3,1,1,1
1489,8,2,2,2,-3,1,-1,0
1490,6,2,4,0,-2,2,-3,0
1491,4,1,5,-2,-2,3,-5,-1
1492,2,1,6,-4,-1,4,-7,-1
1493,1,0,6,-6,-1,4,-9,-1
1494,1,-1,5,-7,0,3,-10,-1
1495,1,-2,5,-7,0,2,-10,-2
1496,2,-4,7,-8,0,2,-11,-2
1497,3,-6,9,-8,-1,1,-11,-3
1498,3,-7,11,-8,-2,-2,-12,-3
1499,3,-7,10,-8,-2,-7,-12,-3
1500,2,-7,9,-7,-2,-9,-12,-3
1501,2,-6,8,-7,-1,-8,-12,-2
1502,1,-4,8,-7,-1,-5,-12,-1
1503,1,-3,6,-7,1,-3,-11,0
1504,1,-1,3,-7,1,-2,-10,1
1505,2,0,1,-6,2,-2,-10,2
1506,4,1,2,-6,2,-2,-9,3
1507,6,2,3,-6,3,-3,-9,3
1508,7,1,4,-6,3,-4,-10,4
1509,7,1,3,-6,3,-5,-10,4
1510,8,0,3,-6,3,-4,-9,4
1511,8,-1,3,-5,3,-2,-9,4
1512,7,-1,3,-4,3,0,-9,3
1513,7,-2,2,-4,3,1,-8,3
1514,7,-3,1,-4,2,0,-8,2
1515,7,-4,1,-4,2,-2,-8,2
1516,7,-4,1,-4,1,-4,-7,2
1517,7,-5,-1,-4,1,-7,-6,2
1518,8,-5,-3,-3,0,-11,-5,1
1519,8,-5,-3,-3,-1,-13,-5,1
1520,7,-4,-2,-3,-1,-12,-5,1
1521,6,-4,1,-4,-2,-7,-5,1
1522,5,-4,5,-5,-3,-1,-6,0
1523,4,-4,7,-5,-4,4,-6,0
1524,3,-5,9,-6,-4,6,-6,-1
1525,4,-6,10,-6,-4,7,-6,-1
1526,5,-7,9,-6,-4,6,-6,-2
1527,6,-7,7,-6,-4,5,-5,-2
1528,6,-7,4,-5,-3,5,-5,-2
1529,6,-7,1,-5,-3,3,-4,-2
1530,6,-6,0,-5,-2,2,-4,-2
1531,5,-5,2,-5,-2,5,-5,-1
1532,4,-4,4,-6,-2,10,-5,0
1533,2,-3,6,-7,-2,12,-6,1
1534,1,-2,6,-7,-2,12,-7,1
1535,0,-2,6,-7,-3,10,-8,1
1536,0,-2,7,-6,-3,10,-8,1
1537,0,-2,9,-6,-3,13,-8,0
1538,1,-2,11,-5,-3,15,-8,-1
1539,1,-2,11,-4,-3,14,-6,-1
1540,3,-2,9,-3,-2,11,-5,-1
1541,5,-2,6,-1,-1,6,-4,0
1542,9,-3,4,2,0,3,-2,1
1543,13,-6,2,3,1,-1,1,2
1544,18,-8,-1,5,2,-5,3,3
1545,21,-11,-5,5,2,-10,5,3
1546,23,-13,-6,5,3,-14,6,3
1547,24,-14,-5,4,3,-15,6,3
1548,24,-15,-3,3,3,-15,6,3
1549,23,-16,-2,1,3,-16,4,2
1550,22,-16,-3,-1,2,-19,3,1
1551,20,-16,-4,-2,2,-23,1,1
1552,18,-14,-4,-3,2,-24,1,1
1553,17,-13,-4,-4,2,-24,1,1
1554,15,-12,-5,-5,1,-22,1,2
1555,15,-12,-7,-5,1,-21,1,2
1556,14,-11,-8,-4,2,-19,1,2
1557,14,-11,-7,-5,2,-14,1,3
1558,14,-11,-4,-5,3,-11,2,3
1559,13,-10,-1,-5,3,-11,2,4
1560,13,-9,1,-5,4,-14,3,4
1561,13,-9,1,-5,4,-18,3,4
1562,13,-7,0,-4,5,-20,3,5
1563,12,-6,-2,-2,5,-21,4,5
1564,12,-4,-3,0,5,-20,5,5
1565,12,-3,-2,1,5,-18,7,5
1566,12,-2,2,3,5,-16,9,5
1567,13,-2,6,4,4,-13,11,5
1568,14,-3,8,5,4,-11,12,5
1569,16,-3,9,7,4,-8,12,5
1570,17,-4,10,8,5,-5,13,5
1571,18,-4,13,9,5,0,13,5
1572,18,-3,17,10,6,4,15,6
1573,19,-2,21,12,6,8,17,6
1574,21,0,23,14,7,10,19,7
1575,23,2,23,17,8,10,22,7
1576,25,3,21,19,8,10,25,8
1577,27,4,21,22,8,11,28,8
1578,28,4,20,24,8,13,30,9
1579,30,4,19,26,8,14,32,9
1580,32,4,19,28,9,14,33,9
1581,33,3,21,29,10,13,34,9
1582,33,2,24,30,11,14,34,8
1583,33,2,28,30,12,16,34,8
1584,32,1,31,29,12,17,33,7
1585,30,1,32,27,12,17,31,7
1586,27,1,31,25,11,15,28,6
1587,24,1,30,23,11,15,26,6
1588,22,1,31,22,11,18,24,5
1589,21,2,31,20,11,19,23,4
1590,20,3,31,19,10,19,22,3
1591,20,3,27,18,10,17,22,2
1592,20,4,24,17,9,14,21,2
1593,20,4,20,16,10,12,21,2
1594,20,4,17,15,10,9,20,3
1595,20,4,13,14,10,7,19,4
1596,19,4,10,13,10,4,18,5
1597,19,5,8,13,10,3,18,6
1598,18,5,8,13,10,2,17,7
1599,18,6,8,13,9,1,17,8
1600,17,5,7,13,8,-1,16,8
1601,17,5,4,13,7,-5,16,7
1602,16,3,1,13,6,-8,16,6
1603,16,2,1,12,5,-8,15,6
1604,14,2,3,12,4,-5,14,5
1605,14,1,5,11,4,0,13,4
1606,12,1,5,10,3,2,12,3
1607,10,0,5,8,2,2,10,1
1608,8,-1,6,6,1,1,8,0
1609,5,-2,6,4,0,0,6,-2
1610,3,-3,4,2,-1,0,4,-2
1611,1,-3,2,0,-1,-1,2,-2
1612,-1,-3,0,-2,-1,-2,0,-3
1613,-3,-3,1,-3,-1,-2,-1,-3
1614,-5,-3,1,-5,0,-4,-1,-3
1615,-6,-2,2,-6,1,-6,-1,-4
1616,-7,-1,4,-6,1,-6,-1,-4
1617,-8,-1,8,-6,0,-2,-1,-4
1618,-8,-1,12,-6,0,4,-2,-5
1619,-8,-1,13,-6,0,7,-2,-5
1620,-7,-1,11,-6,0,6,-2,-6
1621,-6,-2,7,-6,0,3,-2,-6
1622,-6,-3,4,-6,1,-2,-3,-6
1623,-6,-3,1,-6,1,-4,-3,-6
1624,-7,-3,0,-5,1,-4,-3,-5
1625,-8,-3,2,-5,2,-3,-4,-5
1626,-8,-4,3,-5,2,-3,-4,-4
1627,-8,-4,5,-5,2,-4,-4,-4
1628,-7,-5,7,-5,2,-3,-4,-3
1629,-6,-5,9,-5,1,0,-3,-3
1630,-5,-5,10,-4,1,2,-2,-3
1631,-5,-5,9,-4,1,3,-2,-2
1632,-5,-5,8,-4,1,2,-3,-2
1633,-6,-5,8,-5,1,3,-4,-2
1634,-7,-5,11,-6,1,5,-6,-2
1635,-9,-5,14,-7,1,9,-7,-2
1636,-10,-5,15,-9,0,12,-8,-2
1637,-12,-5,14,-10,0,13,-10,-2
1638,-12,-5,13,-11,0,13,-11,-3
1639,-13,-6,13,-11,0,16,-11,-3
1640,-12,-6,14,-11,0,19,-11,-3
1641,-11,-6,15,-11,0,22,-11,-3
1642,-10,-7,15,-10,1,24,-10,-3
1643,-9,-7,16,-10,1,25,-10,-3
1644,-8,-7,18,-10,1,28,-10,-3
1645,-7,-7,19,-9,2,30,-9,-3
1646,-7,-6,20,-9,2,31,-9,-3
1647,-7,-4,20,-9,2,29,-10,-3
1648,-7,-3,20,-8,2,27,-9,-3
1649,-7,-3,19,-8,2,26,-9,-3
1650,-6,-2,17,-7,1,26,-9,-3
1651,-6,-2,16,-6,-1,26,-8,-3
1652,-6,-1,13,-5,-2,26,-7,-2
1653,-5,0,12,-3,-3,27,-6,-2
1654,-4,1,12,-2,-3,28,-4,-1
1655,-3,2,12,-1,-3,28,-3,0
1656,-1,2,12,1,-2,28,-2,1
1657,1,2,12,1,-1,27,-2,2
1658,1,2,14,1,-1,29,-2,3
1659,0,1,19,0,0,35,-3,3
1660,-2,1,23,-1,0,42,-4,2
1661,-3,0,26,-2,0,48,-5,1
1662,-3,-1,26,-3,-1,49,-5,-1
1663,-4,-2,26,-3,-2,46,-6,-2
1664,-4,-4,24,-4,-3,42,-6,-3
1665,-5,-5,20,-5,-4,35,-6,-4
1666,-6,-6,14,-6,-5,27,-7,-5
1667,-7,-6,9,-7,-5,19,-8,-6
1668,-8,-6,5,-9,-5,14,-8,-6
1669,-9,-5,3,-10,-5,13,-9,-6
1670,-10,-5,2,-10,-5,12,-9,-5
1671,-10,-4,-1,-10,-5,11,-9,-4
1672,-9,-3,-4,-9,-5,6,-9,-3
1673,-8,-2,-6,-8,-4,1,-9,-2
1674,-6,-1,-6,-7,-3,-3,-8,-2
1675,-5,-1,-6,-5,-2,-5,-7,-1
1676,-4,0,-6,-4,-1,-5,-6,-1
1677,-3,0,-8,-3,1,-6,-4,0
1678,-1,1,-12,-2,2,-9,-3,1
1679,0,1,-13,-2,3,-11,-2,2
1680,1,1,-10,-2,4,-11,-2,3
1681,1,1,-7,-2,4,-10,-2,3
1682,-1,1,-5,-2,3,-9,-3,2
1683,-3,1,-5,-3,2,-9,-3,1
1684,-6,0,-4,-4,1,-6,-4,0
1685,-7,0,-3,-5,-1,-1,-5,-1
1686,-8,0,-1,-6,-2,4,-6,-2
1687,-9,0,0,-7,-3,6,-6,-2
1688,-9,0,0,-7,-3,5,-7,-2
1689,-10,0,2,-8,-3,5,-7,-3
1690,-10,0,6,-9,-2,7,-7,-3
1691,-11,-1,10,-11,-2,9,-7,-2
1692,-12,-1,12,-12,-1,11,-7,-2
1693,-12,-1,13,-13,-1,10,-8,-2
1694,-13,-1,13,-13,0,10,-8,-2
1695,-13,0,14,-12,0,12,-8,-2
1696,-12,1,16,-11,1,15,-7,-1
1697,-10,1,18,-10,1,19,-6,0
1698,-8,2,18,-9,2,20,-5,1
1699,-7,3,18,-9,3,20,-4,1
1700,-6,3,20,-8,3,23,-3,2
1701,-6,4,23,-7,3,30,-1,2
1702,-5,4,28,-6,3,43,1,2
1703,-5,4,32,-5,3,56,3,2
1704,-4,4,36,-3,3,68,5,2
1705,-3,4,39,-2,3,75,6,2
1706,-3,4,41,-1,3,79,7,2
1707,-3,4,41,-1,3,79,7,2
1708,-4,5,42,-2,2,78,6,1
1709,-6,5,42,-3,1,78,4,1
1710,-7,5,43,-4,1,80,3,0
1711,-8,5,44,-5,1,85,2,0
1712,-9,6,45,-6,1,88,1,-1
1713,-10,6,45,-6,1,87,0,-1
1714,-10,6,43,-6,2,82,-1,-1
1715,-10,6,42,-6,2,79,-1,-1
1716,-10,6,41,-5,1,79,-1,0
1717,-9,6,42,-5,0,83,-1,1
1718,-8,5,41,-4,-1,87,1,1
1719,-6,5,39,-3,-3,87,2,2
1720,-5,4,35,-2,-3,83,3,2
1721,-3,3,30,-1,-3,75,3,1
1722,-1,2,24,0,-3,64,3,0
1723,-1,1,16,0,-3,51,2,-1
1724,-1,0,8,0,-3,38,1,-1
1725,-2,0,2,0,-4,28,1,-2
1726,-4,0,2,0,-5,26,2,-2
1727,-5,1,6,-1,-6,31,3,-2
1728,-5,1,11,-1,-6,39,3,-2
1729,-5,0,12,-2,-6,42,3,-3
1730,-5,-1,9,-2,-6,39,2,-4
1731,-4,-3,3,-3,-6,30,1,-5
1732,-4,-4,-5,-3,-5,16,-2,-6
1733,-4,-5,-13,-3,-5,2,-4,-6
1734,-4,-5,-20,-3,-4,-11,-5,-6
1735,-5,-4,-24,-3,-4,-21,-6,-6
1736,-5,-3,-28,-3,-3,-28,-6,-5
1737,-6,-2,-32,-3,-2,-37,-6,-4
1738,-7,0,-37,-3,-1,-45,-6,-3
1739,-7,2,-41,-3,1,-51,-7,-1
1740,-8,4,-44,-3,2,-55,-7,0
1741,-7,5,-45,-3,2,-57,-8,1
1742,-7,6,-47,-3,2,-60,-8,1
1743,-6,6,-50,-3,2,-64,-9,1
1744,-5,6,-52,-3,1,-66,-9,0
1745,-5,5,-53,-4,1,-64,-8,-1
1746,-5,4,-54,-4,1,-62,-8,-1
1747,-5,4,-55,-5,1,-63,-7,-2
1748,-5,4,-57,-5,1,-64,-6,-2
1749,-5,4,-59,-5,0,-67,-5,-3
1750,-5,4,-60,-5,-1,-68,-4,-4
1751,-4,4,-60,-4,-1,-68,-4,-4
1752,-5,4,-61,-3,-2,-68,-4,-4
1753,-5,4,-62,-2,-2,-70,-5,-4
1754,-6,4,-62,-2,-2,-73,-6,-3
1755,-6,4,-60,-3,-2,-76,-8,-3
1756,-7,3,-56,-3,-2,-77,-10,-3
1757,-8,2,-54,-4,-1,-78,-12,-3
1758,-8,1,-55,-5,-1,-82,-13,-3
1759,-8,1,-58,-5,1,-89,-14,-3
1760,-8,1,-62,-6,3,-96,-14,-2
1761,-8,1,-64,-6,4,-102,-14,-3
1762,-6,1,-65,-6,4,-107,-14,-3
1763,-5,0,-66,-6,4,-112,-13,-3
1764,-4,0,-68,-5,4,-118,-13,-4
1765,-3,-1,-70,-4,4,-125,-13,-4
1766,-2,-1,-71,-3,4,-130,-12,-3
1767,-1,0,-72,-2,4,-132,-12,-3
1768,-1,0,-71,-1,4,-130,-11,-3
1769,-1,0,-71,0,3,-127,-10,-3
1770,0,-1,-69,1,2,-123,-8,-4
1771,0,-1,-66,1,1,-114,-6,-4
1772,0,-1,-60,1,-1,-103,-4,-5
1773,1,0,-54,1,-1,-92,-2,-5
1774,1,1,-50,1,-1,-84,0,-5
1775,2,1,-49,1,-1,-78,1,-5
1776,2,2,-48,1,-1,-69,2,-5
1777,1,2,-44,1,-1,-57,2,-6
1778,0,2,-40,1,-1,-43,3,-6
1779,-2,3,-34,1,-1,-30,3,-6
1780,-3,4,-31,2,-1,-22,3,-6
1781,-4,4,-28,2,-1,-18,4,-6
1782,-4,4,-27,3,0,-15,5,-5
1783,-5,4,-26,3,0,-13,5,-5
1784,-4,3,-26,3,0,-11,5,-5
1785,-4,2,-23,3,0,-9,5,-4
1786,-4,2,-18,2,0,-3,6,-4
1787,-3,2,-10,3,0,7,7,-4
1788,0,3,-2,5,1,18,9,-3
1789,4,3,5,8,1,27,13,-3
1790,8,4,8,12,2,33,18,-1
1791,13,4,8,17,2,36,23,0
1792,17,5,7,21,3,36,27,2
1793,21,5,4,24,4,34,31,3
1794,24,6,-1,27,5,30,34,5
1795,26,8,-5,30,5,26,36,6
1796,27,9,-8,31,6,24,38,7
1797,28,10,-7,33,6,26,39,7
1798,26,11,-4,33,6,30,40,6
1799,25,12,-1,34,5,35,41,6
1800,23,12,3,35,4,40,43,5
1801,23,11,7,37,4,43,45,4
1802,24,10,10,38,3,46,47,3
1803,26,9,13,39,3,47,48,3
1804,26,9,14,40,4,48,49,3
1805,26,9,16,41,4,48,49,4
1806,25,10,16,41,4,46,49,4
1807,25,11,17,42,4,44,49,5
1808,24,11,18,42,4,42,49,5
1809,25,12,17,42,5,40,50,6
1810,25,12,15,41,6,39,50,6
1811,24,11,12,41,7,35,50,7
1812,23,11,11,39,7,33,48,7
1813,22,10,13,38,7,34,46,8
1814,20,11,16,36,7,37,44,9
1815,18,12,17,34,7,37,42,9
1816,17,12,16,32,7,34,40,10
1817,16,12,13,31,8,30,39,9
1818,15,11,11,28,8,26,37,9
1819,14,9,11,26,9,24,35,8
1820,13,8,11,24,9,23,32,7
1821,12,6,11,22,9,20,29,6
1822,10,6,11,20,9,19,26,5
1823,8,6,12,18,8,19,22,4
1824,5,5,12,15,7,19,19,3
1825,3,5,12,11,6,18,15,2
1826,0,4,11,8,5,14,11,0
1827,-3,2,9,4,4,10,8,-2
1828,-6,1,9,2,2,6,5,-3
1829,-9,1,7,-1,1,1,2,-3
1830,-11,0,6,-3,0,-4,-1,-3
1831,-13,0,4,-4,0,-6,-3,-3
1832,-14,0,3,-6,0,-7,-5,-2
1833,-15,1,2,-7,0,-8,-7,-2
1834,-16,1,-1,-8,0,-12,-9,-2
1835,-16,0,-4,-9,-1,-18,-11,-2
1836,-17,0,-8,-10,-1,-24,-12,-3
1837,-17,-1,-10,-11,-1,-28,-15,-4
1838,-19,-1,-11,-13,-1,-28,-18,-4
1839,-20,-1,-12,-15,-2,-26,-20,-5
1840,-22,-1,-12,-17,-2,-24,-22,-5
1841,-23,0,-13,-18,-2,-24,-24,-5
1842,-24,1,-13,-19,-2,-25,-25,-5
1843,-25,3,-14,-20,-1,-26,-25,-4
1844,-24,4,-16,-20,1,-27,-25,-4
1845,-24,4,-19,-20,1,-31,-24,-3
1846,-23,4,-23,-20,1,-38,-24,-3
1847,-23,3,-27,-19,1,-44,-24,-2
1848,-23,2,-28,-19,0,-46,-25,-2
1849,-24,0,-28,-20,-1,-44,-26,-3
1850,-24,-1,-27,-22,-1,-42,-28,-4
1851,-24,-2,-27,-25,-2,-42,-31,-5
1852,-24,-3,-28,-27,-3,-42,-33,-6
1853,-24,-4,-29,-28,-4,-41,-35,-7
1854,-25,-5,-30,-28,-4,-39,-36,-8
1855,-25,-7,-30,-28,-5,-40,-36,-8
1856,-25,-8,-31,-26,-5,-43,-35,-8
1857,-25,-8,-32,-24,-5,-48,-34,-8
1858,-25,-8,-33,-23,-5,-54,-32,-7
1859,-25,-7,-34,-21,-5,-58,-31,-6
1860,-24,-5,-35,-20,-4,-59,-29,-5
1861,-24,-4,-36,-20,-4,-58,-28,-5
1862,-24,-4,-38,-21,-4,-60,-27,-5
1863,-23,-4,-39,-21,-5,-61,-27,-5
1864,-22,-4,-36,-22,-6,-58,-27,-5
1865,-21,-5,-32,-23,-6,-53,-28,-5
1866,-19,-6,-27,-24,-6,-48,-28,-5
1867,-18,-7,-25,-25,-5,-46,-28,-6
1868,-18,-7,-23,-26,-4,-47,-28,-6
1869,-18,-7,-23,-26,-3,-48,-28,-6
1870,-19,-7,-24,-26,-3,-49,-27,-6
1871,-19,-6,-26,-24,-2,-50,-26,-6
1872,-19,-6,-28,-23,-2,-54,-25,-5
1873,-18,-6,-30,-21,-1,-58,-24,-4
1874,-16,-6,-30,-19,-1,-60,-22,-3
1875,-15,-6,-30,-18,0,-62,-21,-2
1876,-14,-5,-31,-17,0,-63,-20,-1
1877,-13,-4,-32,-17,0,-64,-20,-1
1878,-12,-4,-33,-16,0,-64,-20,-2
1879,-11,-3,-33,-16,0,-62,-20,-3
1880,-10,-3,-33,-16,0,-61,-20,-4
1881,-10,-3,-33,-16,-1,-61,-20,-5
1882,-11,-4,-34,-16,-1,-61,-19,-6
1883,-11,-4,-31,-16,-1,-61,-18,-6
1884,-11,-5,-26,-16,-1,-57,-17,-6
1885,-11,-6,-21,-16,-2,-51,-17,-6
1886,-11,-7,-16,-17,-1,-44,-16,-6
1887,-11,-7,-12,-17,-2,-37,-15,-6
1888,-10,-6,-10,-16,-2,-28,-14,-5
1889,-10,-5,-7,-16,-3,-19,-13,-4
1890,-9,-5,-7,-15,-4,-9,-11,-3
1891,-9,-4,-7,-14,-5,-2,-9,-3
1892,-9,-4,-8,-13,-6,2,-8,-3
1893,-9,-3,-12,-12,-6,5,-6,-2
1894,-9,-2,-18,-12,-5,9,-5,-2
1895,-8,-2,-23,-11,-5,12,-4,-2
1896,-8,-1,-27,-11,-4,15,-4,-2
1897,-7,-1,-31,-12,-4,16,-4,-1
1898,-6,-1,-34,-12,-3,13,-4,-1
1899,-5,-1,-37,-11,-2,11,-4,-1
1900,-4,-1,-38,-10,-2,11,-5,-1
1901,-4,-1,-39,-10,-2,12,-5,0
1902,-4,-1,-40,-9,-2,12,-6,0
1903,-4,-1,-41,-8,-3,9,-7,-1
1904,-4,-1,-41,-7,-4,5,-7,-1
1905,-4,-1,-40,-6,-5,4,-7,-2
1906,-4,-2,-38,-5,-5,4,-7,-3
1907,-3,-2,-35,-5,-5,7,-7,-3
1908,-2,-1,-32,-5,-4,9,-7,-3
1909,-2,-1,-28,-5,-3,11,-6,-2
1910,-3,-1,-23,-5,-2,14,-6,-2
1911,-3,-1,-19,-6,-1,19,-6,-1
1912,-4,-1,-17,-7,-1,24,-6,-1
1913,-4,-1,-15,-8,0,27,-6,-1
1914,-4,-1,-13,-8,0,28,-6,-2
1915,-5,-1,-10,-9,-1,30,-5,-2
1916,-5,-2,-8,-9,-1,32,-5,-2
1917,-6,-2,-6,-9,-2,36,-4,-2
1918,-7,-2,-5,-10,-2,40,-5,-2
1919,-8,-3,-5,-10,-2,43,-6,-2
1920,-10,-3,-3,-10,-3,46,-6,-1
1921,-10,-3,-2,-10,-3,47,-7,-1
1922,-11,-2,-2,-11,-3,47,-8,-1
1923,-11,-2,-3,-11,-3,46,-8,1
1924,-10,-1,-4,-11,-3,46,-9,1
1925,-9,-1,-5,-11,-2,47,-8,2
1926,-8,-1,-8,-11,-2,46,-7,2
1927,-8,-1,-11,-11,-2,43,-6,2
1928,-7,-2,-14,-12,-3,41,-5,2
1929,-6,-4,-16,-12,-3,40,-4,2
1930,-5,-4,-18,-11,-4,41,-3,2
1931,-4,-4,-19,-10,-4,42,-2,2
1932,-2,-4,-21,-9,-3,42,-1,2
1933,-1,-3,-22,-7,-3,40,0,1
1934,0,-1,-23,-6,-2,38,1,1
1935,0,0,-22,-5,-2,38,1,1
1936,1,1,-22,-4,-1,39,1,1
1937,1,3,-22,-4,0,40,1,1
1938,1,4,-25,-3,1,37,2,1
1939,1,5,-27,-3,2,31,2,1
1940,1,5,-28,-2,2,26,2,2
1941,1,6,-27,-2,3,22,2,2
1942,1,6,-26,-1,3,20,2,3
1943,0,7,-26,0,2,18,1,4
1944,-1,8,-26,1,2,13,1,5
1945,-1,8,-25,2,2,9,1,5
1946,-1,8,-23,4,3,5,2,5
1947,-1,7,-21,4,4,3,2,5
1948,-1,7,-20,4,4,4,2,5
1949,0,6,-19,4,4,4,2,4
1950,0,5,-18,4,3,5,1,4
1951,1,4,-16,5,2,6,1,4
1952,3,5,-14,7,2,6,3,3
1953,6,6,-14,9,2,5,5,4
1954,8,7,-15,11,3,1,7,4
1955,9,8,-16,13,3,-3,9,5
1956,10,9,-15,13,3,-6,10,5
1957,11,9,-14,13,3,-10,10,5
1958,12,9,-15,12,3,-14,10,5
1959,14,8,-18,11,3,-19,10,5
1960,15,8,-20,10,3,-24,10,4
1961,16,6,-23,10,2,-30,10,3
1962,16,4,-25,9,0,-34,9,2
1963,15,2,-27,8,-2,-36,7,1
1964,15,1,-26,7,-4,-37,6,1
1965,15,-1,-23,6,-5,-35,5,0
1966,16,-1,-19,4,-5,-30,3,1
1967,16,-1,-13,3,-5,-24,3,1
1968,15,-1,-9,1,-4,-18,2,1
1969,14,-1,-7,0,-4,-14,2,1
1970,13,0,-6,-1,-3,-12,2,0
1971,12,0,-5,-2,-4,-9,2,0
1972,10,0,-5,-3,-4,-8,2,-1
1973,9,0,-5,-4,-3,-9,2,-1
1974,8,1,-7,-4,-3,-10,1,0
1975,7,1,-8,-4,-2,-10,1,1
1976,5,2,-8,-3,-1,-9,1,1
1977,3,3,-8,-3,-1,-9,0,2
1978,2,4,-8,-4,-1,-11,-1,3
1979,2,4,-8,-4,-1,-15,-1,3
1980,2,5,-8,-4,0,-17,-1,3
1981,2,5,-6,-5,1,-16,-1,2
1982,3,6,-4,-5,1,-12,-1,2
1983,3,6,-3,-6,1,-10,-1,2
1984,3,5,-1,-6,1,-7,-2,2
1985,3,4,0,-6,1,-6,-3,2
1986,2,3,1,-6,1,-5,-4,1
1987,2,2,1,-5,0,-5,-4,1
1988,1,1,1,-3,0,-6,-3,-1
1989,1,0,1,-2,0,-9,-3,-2
1990,1,-2,-1,-1,0,-16,-3,-3
1991,0,-2,-3,0,1,-22,-3,-3
1992,0,-3,-4,1,2,-27,-3,-2
1993,0,-2,-5,1,3,-32,-3,-1
1994,0,-1,-7,2,3,-35,-3,1
1995,0,1,-8,3,4,-38,-2,3
1996,1,2,-9,3,4,-39,-2,4
1997,1,2,-9,3,5,-39,-2,4
1998,1,3,-9,3,5,-39,-2,5
1999,0,3,-9,3,5,-40,-3,5
2000,-1,2,-10,2,5,-42,-4,4
2001,-1,1,-11,1,4,-43,-5,3
2002,-2,-1,-11,-1,3,-42,-6,1
2003,-2,-3,-11,-2,2,-42,-7,-1
2004,-3,-5,-13,-4,1,-41,-8,-3
2005,-4,-6,-16,-5,0,-42,-8,-4
2006,-4,-6,-19,-6,-1,-42,-9,-5
2007,-4,-7,-20,-7,-2,-42,-9,-6
2008,-4,-7,-20,-7,-3,-40,-9,-6
2009,-4,-7,-19,-7,-4,-38,-9,-6
2010,-4,-8,-19,-8,-5,-38,-9,-6
2011,-4,-9,-16,-8,-5,-38,-10,-6
2012,-4,-10,-13,-9,-6,-35,-11,-7
2013,-5,-10,-12,-10,-6,-33,-12,-7
2014,-6,-9,-11,-11,-6,-30,-13,-7
2015,-8,-8,-10,-12,-6,-28,-14,-7
2016,-9,-7,-7,-13,-6,-23,-15,-7
2017,-10,-6,-3,-13,-6,-16,-15,-7
2018,-10,-7,1,-13,-6,-10,-14,-7
2019,-10,-8,5,-12,-7,-4,-13,-7
2020,-9,-8,8,-11,-7,-1,-12,-7
2021,-8,-8,10,-10,-8,3,-12,-7
2022,-7,-7,12,-10,-8,5,-12,-6
2023,-6,-5,12,-9,-7,6,-10,-5
2024,-4,-4,11,-6,-6,5,-7,-4
2025,-2,-2,10,-3,-6,1,-4,-4
2026,1,-1,9,1,-5,-2,1,-3
2027,4,0,10,5,-4,-3,5,-3
2028,7,1,11,8,-3,-2,9,-3
2029,9,2,12,11,-3,-1,12,-2
2030,11,3,11,14,-2,-3,16,-2
2031,13,4,10,18,-2,-7,20,-1
2032,14,5,10,21,-2,-9,23,0
2033,16,6,9,24,-1,-10,26,1
2034,17,6,10,26,-1,-12,28,1
2035,19,7,10,28,0,-12,31,2
2036,21,7,11,30,1,-11,33,3
2037,23,7,11,31,2,-8,35,4
2038,24,7,12,31,3,-6,35,4
2039,24,6,11,31,3,-6,35,4
2040,23,7,11,30,4,-7,34,4
2041,22,7,11,29,3,-10,33,4
2042,22,7,11,29,3,-12,32,4
2043,21,7,13,29,2,-11,32,4
2044,21,7,13,28,2,-8,31,4
2045,20,6,12,27,1,-8,29,4
2046,18,6,11,25,1,-9,26,3
2047,15,5,13,23,0,-8,23,3
2048,12,4,17,20,-1,-5,19,2
2049,9,4,19,18,-2,-2,16,2
2050,6,4,18,15,-2,-2,13,2
2051,4,4,16,13,-3,-4,10,3
2052,1,4,14,10,-2,-5,6,3
2053,-1,4,13,7,-2,-6,3,3
2054,-4,3,11,5,-1,-8,0,3
2055,-6,3,8,2,-1,-12,-3,3
2056,-9,3,2,-2,-1,-19,-5,3
2057,-11,2,-1,-5,-1,-23,-8,2
2058,-13,2,-1,-8,-2,-24,-11,1
2059,-15,1,0,-10,-2,-25,-14,0
2060,-17,0,-1,-12,-3,-26,-17,0
2061,-18,0,-3,-14,-3,-28,-20,0
2062,-19,0,-5,-16,-2,-31,-22,1
2063,-20,1,-5,-18,-2,-30,-24,2
2064,-21,2,-3,-19,-2,-27,-25,2
2065,-21,2,-1,-19,-2,-26,-26,3
2066,-20,2,-1,-18,-2,-26,-26,3
2067,-19,2,-1,-18,-3,-27,-26,3
2068,-19,1,1,-18,-3,-24,-26,3
2069,-19,0,3,-19,-4,-20,-26,3
2070,-20,-1,6,-20,-4,-16,-27,2
2071,-21,-2,7,-21,-4,-14,-28,1
2072,-22,-3,9,-22,-5,-14,-30,0
2073,-23,-3,11,-22,-5,-14,-30,-1
2074,-24,-3,14,-21,-5,-14,-29,-2
2075,-24,-2,16,-20,-5,-13,-28,-2
2076,-24,-2,17,-20,-4,-14,-27,-2
2077,-23,-2,14,-19,-4,-13,-26,-2
2078,-21,-2,10,-18,-4,-4,-24,-1
2079,-19,-3,5,-17,-4,9,-23,-1
2080,-18,-4,2,-17,-5,18,-22,-2
2081,-16,-4,0,-17,-5,17,-20,-2
2082,-15,-5,-2,-17,-5,9,-19,-2
2083,-13,-5,-4,-17,-5,4,-18,-3
2084,-12,-6,-5,-17,-5,2,-17,-2
2085,-11,-6,-5,-17,-4,2,-16,-2
2086,-10,-6,-5,-16,-3,1,-15,-2
2087,-11,-6,-6,-16,-3,-3,-14,-1
2088,-11,-6,-7,-16,-2,-8,-14,-1
2089,-12,-6,-7,-16,-2,-10,-13,-2
2090,-12,-6,-6,-16,-1,-9,-14,-2
2091,-13,-6,-5,-16,-1,-9,-14,-2
2092,-14,-7,-5,-16,-1,-12,-14,-2
2093,-14,-7,-5,-16,-1,-17,-15,-3
2094,-14,-8,-5,-15,-2,-20,-15,-3
2095,-14,-7,-5,-14,-2,-18,-15,-3
2096,-14,-7,-6,-14,-2,-15,-15,-3
2097,-14,-7,-7,-13,-2,-13,-15,-2
2098,-15,-6,-6,-13,-1,-15,-15,-2
2099,-15,-6,-5,-13,-1,-15,-15,-1
2100,-14,-5,-5,-12,0,-14,-15,-1
2101,-13,-4,-6,-12,0,-12,-14,-1
2102,-13,-3,-7,-11,0,-13,-12,-1
2103,-12,-2,-8,-10,0,-15,-11,-1
2104,-12,-1,-6,-9,0,-17,-10,0
2105,-11,-1,-6,-8,0,-19,-9,1
2106,-11,0,-7,-9,1,-18,-9,1
2107,-10,0,-8,-9,0,-18,-9,1
2108,-10,-1,-8,-10,-1,-18,-9,0
2109,-11,-2,-7,-10,-2,-17,-10,-1
2110,-12,-2,-6,-11,-4,-17,-12,-1
2111,-13,-3,-5,-11,-5,-16,-12,-2
2112,-14,-4,-6,-10,-5,-18,-13,-3
2113,-13,-4,-8,-9,-5,-23,-12,-4
2114,-11,-3,-9,-8,-5,-28,-11,-4
2115,-9,-2,-8,-7,-4,-31,-10,-4
2116,-7,-2,-9,-6,-4,-30,-8,-4
2117,-6,-2,-10,-6,-5,-28,-7,-4
2118,-6,-2,-10,-5,-5,-28,-7,-3
2119,-7,-2,-8,-5,-5,-27,-8,-3
2120,-8,-1,-4,-5,-4,-26,-8,-2
2121,-7,-1,-2,-5,-3,-25,-8,-1
2122,-6,-1,0,-4,-2,-25,-7,0
2123,-5,-1,3,-4,-1,-23,-7,0
2124,-4,-2,7,-4,0,-20,-7,1
2125,-3,-3,11,-3,0,-15,-7,1
2126,-2,-3,13,-3,0,-10,-6,2
2127,-1,-3,15,-2,0,-6,-6,2
2128,-2,-3,15,-1,0,-4,-5,3
2129,-2,-3,16,1,0,-3,-5,3
2130,-3,-3,17,1,-1,-3,-4,3
2131,-4,-3,19,1,-1,-2,-4,3
2132,-4,-4,21,1,-1,-3,-4,2
2133,-4,-4,20,0,-1,-7,-4,1
2134,-3,-5,18,1,-1,-12,-3,1
2135,-2,-6,16,1,-1,-16,-3,0
2136,-1,-7,15,2,-2,-17,-3,0
2137,-1,-7,14,3,-2,-16,-2,0
2138,0,-6,13,4,-1,-17,-2,0
2139,0,-5,13,4,-1,-15,-2,1
2140,0,-4,15,4,0,-12,-1,2
2141,1,-3,18,4,1,-9,-1,3
2142,2,-2,22,4,2,-6,0,3
2143,3,-2,28,5,4,-2,1,4
2144,4,-1,36,6,5,4,2,5
2145,4,-1,43,7,6,10,3,7
2146,4,-1,49,7,7,14,3,7
2147,3,-1,50,7,7,16,2,8
2148,2,0,48,6,7,15,1,8
2149,1,0,44,5,7,13,0,8
2150,1,0,41,5,6,9,0,8
2151,1,0,39,6,5,4,0,8
2152,2,-1,37,6,5,-3,1,7
2153,3,-3,33,7,4,-8,1,6
2154,4,-5,32,7,3,-10,1,5
2155,5,-6,32,6,2,-8,0,4
2156,5,-7,33,5,1,-5,-1,3
2157,4,-7,33,4,0,-5,-2,3
2158,4,-7,32,2,-1,-7,-3,3
2159,4,-6,33,2,-1,-7,-3,3
2160,3,-5,35,2,-1,-4,-3,4
2161,3,-3,38,2,0,1,-2,4
2162,2,-1,40,2,1,4,-1,5
2163,2,1,41,3,2,5,0,6
2164,1,2,41,4,3,5,0,7
2165,0,3,42,5,4,7,1,7
2166,0,3,43,5,4,8,1,7
2167,0,2,44,6,4,9,1,6
2168,0,2,43,5,3,8,1,5
2169,-1,1,40,5,3,3,1,4
2170,-1,1,38,4,3,-1,1,3
2171,0,1,37,4,2,-3,1,2
2172,0,0,38,4,2,-3,2,2
2173,0,0,38,5,0,-3,3,1
2174,0,-1,37,6,-1,-7,4,-1
2175,1,-2,36,6,-2,-14,4,-2
2176,1,-3,37,6,-3,-21,3,-2
2177,1,-3,40,5,-4,-24,1,-3
2178,1,-3,43,5,-4,-23,0,-3
2179,2,-3,44,5,-4,-20,-1,-2
2180,2,-2,46,5,-3,-17,-1,-2
2181,2,-2,47,4,-3,-15,-1,-1
2182,2,-1,49,4,-3,-13,-1,-1
2183,1,1,47,5,-3,-11,0,0
2184,1,2,43,5,-2,-12,0,1
2185,1,3,39,5,-2,-16,0,2
2186,1,4,36,5,-1,-19,-1,2
2187,1,3,34,5,-1,-22,-1,3
2188,1,3,34,4,-1,-24,-2,3
2189,0,1,32,3,-1,-28,-4,2
2190,-1,0,30,2,-2,-30,-4,2
2191,-3,-2,27,2,-2,-30,-5,2
2192,-4,-2,24,2,-3,-30,-4,1
2193,-5,-3,20,2,-3,-33,-3,1
2194,-6,-3,16,2,-3,-37,-3,0
2195,-6,-3,13,2,-2,-38,-2,0
2196,-6,-2,13,1,-1,-35,-3,-1
2197,-7,-2,13,0,0,-32,-4,-1
2198,-8,-1,14,-1,1,-31,-5,-1
2199,-9,0,16,-1,2,-31,-5,-1
2200,-8,1,17,-2,2,-29,-5,-1
2201,-7,1,17,-2,3,-26,-4,-1
2202,-5,2,16,-2,3,-25,-3,1
2203,-3,2,14,-2,4,-25,-2,2
2204,-1,3,13,-2,5,-28,-1,3
2205,0,3,12,-2,6,-29,-1,4
2206,1,4,12,-1,6,-28,-1,4
2207,2,4,11,-1,6,-25,0,4
2208,2,4,9,-1,5,-23,-1,4
2209,1,3,6,0,4,-23,-1,3
2210,1,2,4,0,4,-26,-2,3
2211,0,1,3,0,4,-25,-3,2
2212,-1,0,2,0,3,-21,-3,2
2213,-2,-1,0,-1,2,-17,-3,1
2214,-3,-2,-3,-1,1,-14,-3,0
2215,-3,-2,-5,-1,0,-13,-3,-1
2216,-3,-2,-6,-1,-1,-11,-2,-1
2217,-2,-2,-6,-1,-2,-7,-1,-2
2218,-2,-3,-7,1,-2,-2,1,-2
2219,-1,-3,-9,2,-2,2,2,-3
2220,-1,-2,-13,2,-3,3,3,-3
2221,-1,-1,-18,3,-3,2,3,-2
2222,-1,1,-20,3,-2,2,4,-2
2223,-1,3,-19,3,-2,4,4,0
2224,-1,5,-17,3,-1,9,4,2
2225,-1,7,-16,3,-1,11,4,3
2226,-1,8,-15,3,0,13,4,4
2227,0,10,-15,3,1,13,4,5
2228,0,11,-15,3,1,13,4,5
2229,1,12,-17,3,2,12,4,6
2230,1,12,-19,4,2,7,5,6
2231,1,13,-21,4,3,1,5,7
2232,1,12,-20,3,3,-6,5,7
2233,1,11,-20,3,4,-12,5,7
2234,1,9,-19,2,3,-16,5,6
2235,0,7,-17,1,3,-16,4,5
2236,-1,5,-11,1,2,-13,4,4
2237,-2,3,-4,0,1,-7,3,3
2238,-3,2,2,-1,-1,0,2,1
2239,-4,0,5,-1,-1,6,1,1
2240,-4,-1,6,-2,-2,9,1,0
2241,-4,-2,6,-2,-2,10,0,-1
2242,-3,-3,7,-1,-2,9,1,-1
2243,-2,-3,7,0,-3,6,1,-1
2244,-1,-2,5,1,-3,2,2,-1
2245,0,-1,3,2,-3,-1,2,-1
2246,1,1,1,3,-3,-4,3,0
2247,1,2,0,3,-2,-5,4,0
2248,2,4,0,4,-2,-7,5,1
2249,2,5,-1,4,-1,-9,6,2
2250,2,6,-2,4,-1,-12,6,3
2251,1,8,-2,4,-1,-16,6,4
2252,0,9,0,4,-1,-21,6,5
2253,-1,10,2,3,-1,-27,5,5
2254,-1,9,3,2,-2,-30,5,4
2255,-1,6,2,0,-3,-28,3,3
2256,-1,3,1,-2,-4,-25,1,1
2257,-2,0,3,-4,-5,-23,-1,-1
2258,-2,-2,6,-5,-5,-22,-3,-1
2259,-3,-2,10,-6,-6,-24,-4,-2
2260,-3,-2,11,-6,-6,-26,-4,-2
2261,-2,-2,9,-6,-5,-29,-4,-2
2262,-2,-1,7,-6,-5,-30,-5,-1
2263,-2,-1,6,-7,-6,-30,-6,-1
2264,-2,-1,6,-8,-6,-31,-7,-1
2265,-3,-1,6,-9,-6,-36,-8,-2
2266,-3,-1,3,-9,-7,-40,-8,-3
2267,-2,0,0,-9,-7,-41,-7,-3
2268,-2,1,-2,-9,-8,-40,-6,-4
2269,-2,2,-3,-9,-8,-40,-6,-3
2270,-2,4,-3,-9,-8,-42,-6,-3
2271,-2,5,-4,-9,-8,-43,-7,-2
2272,-2,6,-5,-9,-8,-40,-8,-1
2273,-3,6,-5,-10,-8,-35,-8,0
2274,-2,6,-5,-11,-8,-31,-9,1
2275,-2,5,-3,-12,-8,-30,-9,0
2276,-3,3,-1,-13,-7,-29,-8,-1
2277,-4,1,1,-13,-7,-26,-8,-2
2278,-5,-1,3,-14,-6,-22,-8,-3
2279,-6,-3,4,-13,-5,-20,-7,-4
2280,-7,-4,4,-13,-5,-22,-7,-4
2281,-8,-5,3,-13,-5,-25,-8,-5
2282,-9,-6,4,-14,-6,-25,-9,-6
2283,-10,-7,5,-14,-8,-22,-10,-7
2284,-11,-9,8,-14,-9,-20,-12,-8
2285,-11,-10,8,-15,-9,-21,-12,-9
2286,-10,-10,7,-16,-9,-26,-13,-9
2287,-10,-10,5,-16,-8,-32,-13,-9
2288,-9,-11,6,-15,-8,-38,-13,-10
2289,-8,-12,6,-14,-7,-45,-12,-10
2290,-7,-13,7,-13,-6,-52,-12,-10
2291,-6,-13,7,-12,-6,-56,-11,-10
2292,-5,-14,7,-11,-7,-55,-10,-9
2293,-5,-13,10,-10,-7,-51,-10,-9
2294,-5,-13,12,-10,-6,-47,-10,-8
2295,-5,-12,16,-10,-6,-43,-10,-8
2296,-6,-12,19,-10,-5,-41,-10,-7
2297,-7,-12,21,-10,-5,-39,-10,-7
2298,-8,-12,25,-10,-6,-37,-11,-6
2299,-8,-13,28,-10,-6,-34,-11,-6
2300,-8,-13,30,-9,-7,-31,-11,-6
2301,-8,-14,31,-9,-7,-31,-11,-6
2302,-7,-15,30,-9,-7,-35,-11,-7
2303,-6,-16,28,-8,-7,-39,-10,-8
2304,-5,-17,27,-8,-7,-41,-10,-8
2305,-5,-16,27,-7,-6,-41,-9,-8
2306,-4,-14,26,-6,-6,-40,-9,-8
2307,-4,-12,24,-6,-5,-38,-8,-7
2308,-4,-9,22,-5,-5,-34,-6,-6
2309,-3,-8,22,-4,-5,-29,-5,-5
2310,-3,-7,22,-3,-5,-25,-4,-5
2311,-3,-6,22,-3,-5,-25,-4,-5
2312,-3,-6,22,-3,-6,-27,-4,-6
2313,-3,-7,22,-3,-7,-27,-4,-6
2314,-4,-7,23,-4,-7,-24,-4,-7
2315,-6,-8,23,-5,-8,-22,-4,-8
2316,-7,-8,22,-6,-8,-23,-4,-9
2317,-9,-9,19,-7,-8,-26,-5,-10
2318,-9,-9,16,-7,-7,-29,-5,-10
2319,-9,-9,15,-7,-6,-29,-4,-9
2320,-9,-8,16,-6,-6,-27,-4,-8
2321,-8,-7,17,-5,-6,-27,-2,-7
2322,-7,-6,17,-3,-5,-28,0,-6
2323,-6,-5,17,-1,-5,-28,2,-5
2324,-5,-4,17,1,-6,-28,3,-4
2325,-5,-4,15,2,-6,-29,5,-4
2326,-5,-4,13,2,-6,-31,6,-4
2327,-6,-4,12,2,-7,-33,6,-4
2328,-6,-4,11,2,-6,-35,7,-4
2329,-6,-4,10,1,-5,-35,7,-3
2330,-7,-3,9,1,-4,-33,7,-3
2331,-7,-3,9,1,-3,-30,7,-3
2332,-7,-3,8,0,-2,-27,6,-3
2333,-7,-3,9,0,-3,-22,6,-3
2334,-7,-3,9,0,-3,-17,6,-3
2335,-7,-2,9,0,-4,-12,5,-3
2336,-6,-2,9,1,-4,-9,5,-2
2337,-5,-1,9,1,-4,-9,4,-2
2338,-4,1,10,1,-3,-8,3,-2
2339,-4,2,12,1,-2,-5,3,-2
2340,-3,2,14,1,-1,0,2,-2
2341,-2,3,16,1,0,4,3,-1
2342,-2,3,15,1,1,7,3,-1
2343,-2,3,14,2,1,9,4,0
2344,-2,3,13,3,1,14,6,0
2345,-2,3,10,4,0,21,6,0
2346,-2,3,8,5,-1,26,6,0
2347,-2,3,7,6,-2,28,5,0
2348,-2,2,8,6,-2,28,4,0
2349,-2,1,9,6,-3,31,3,-1
2350,-2,0,9,6,-4,35,2,-2
2351,-3,-1,9,5,-5,39,2,-2
2352,-3,-2,9,4,-5,42,1,-3
2353,-4,-2,8,3,-5,44,1,-4
2354,-5,-2,9,2,-5,47,1,-5
2355,-5,-2,11,1,-5,53,0,-5
2356,-6,-2,14,1,-4,60,-1,-6
2357,-7,-2,17,1,-4,66,-1,-6
2358,-7,-1,18,2,-4,68,1,-6
2359,-5,1,18,5,-4,71,4,-5
2360,-3,3,17,8,-3,75,8,-4
2361,1,5,15,12,-2,78,13,-2
2362,4,8,13,17,-1,79,19,0
2363,6,10,12,21,1,80,23,2
2364,8,11,14,24,3,83,27,3
2365,10,13,16,27,4,86,31,4
2366,14,15,16,31,6,89,36,5
2367,18,16,15,35,7,91,40,6
2368,21,16,14,39,8,90,44,6
2369,24,17,15,42,8,89,48,7
2370,27,17,17,45,9,90,52,8
2371,30,17,19,48,9,94,55,9
2372,32,17,21,51,9,99,58,10
2373,34,17,23,54,9,102,60,10
2374,35,17,25,56,9,103,61,11
2375,37,17,26,59,8,104,63,12
2376,39,18,27,60,9,105,64,12
2377,41,19,25,62,9,105,65,14
2378,42,21,23,63,10,104,67,16
2379,44,23,23,64,12,102,68,18
2380,44,25,25,64,13,102,69,19
2381,45,26,26,64,13,102,69,21
2382,45,27,26,65,14,102,70,21
2383,46,27,26,64,14,101,69,22
2384,46,26,26,64,14,99,68,22
2385,46,25,27,62,14,98,66,21
2386,45,23,27,60,13,96,64,20
2387,42,21,25,57,13,93,60,18
2388,39,19,23,54,12,90,56,16
2389,36,18,23,51,11,89,53,15
2390,33,18,24,49,11,89,50,14
2391,30,19,26,46,11,89,47,13
2392,27,20,26,44,11,87,45,13
2393,25,21,24,42,11,83,43,13
2394,24,21,22,40,12,78,41,14
2395,22,20,21,39,12,74,40,14
2396,22,19,23,37,12,73,38,14
2397,21,17,25,35,13,73,37,14
2398,21,16,26,33,13,72,36,14
2399,20,15,25,30,12,70,33,13
2400,18,14,23,26,12,68,31,12
2401,16,13,23,23,10,68,27,11
2402,14,13,22,21,8,68,25,11
2403,11,12,20,19,7,68,23,10
2404,9,11,18,18,6,65,21,8
2405,8,10,16,17,5,60,20,7
2406,7,9,17,15,5,56,18,6
2407,5,8,18,12,6,54,16,4
2408,4,7,17,10,7,51,14,3
2409,2,6,16,7,8,49,12,1
2410,-1,5,15,6,8,48,10,1
2411,-3,5,17,4,9,50,8,1
2412,-4,5,20,4,9,51,6,2
2413,-5,7,21,3,10,51,5,3
2414,-5,8,20,3,10,49,4,5
2415,-5,9,20,3,10,47,3,6
2416,-4,9,19,3,9,46,3,7
2417,-4,9,18,2,8,45,1,7
2418,-4,7,16,1,6,43,0,6
2419,-5,6,13,-1,3,41,-2,5
2420,-7,4,12,-3,1,40,-4,2
2421,-8,2,13,-5,-2,40,-5,0
2422,-10,0,14,-7,-3,40,-5,-3
2423,-12,-2,14,-8,-4,39,-6,-5
2424,-13,-4,13,-9,-5,38,-6,-6
2425,-13,-6,13,-10,-5,38,-6,-8
2426,-14,-7,16,-10,-5,40,-6,-9
2427,-14,-8,19,-10,-5,44,-6,-9
2428,-14,-8,21,-10,-5,47,-7,-8
2429,-14,-7,22,-10,-4,46,-8,-7
2430,-15,-5,22,-10,-3,42,-8,-6
2431,-16,-4,21,-9,-2,39,-9,-4
2432,-16,-2,19,-8,-1,36,-9,-2
2433,-17,0,16,-7,-1,32,-9,0
2434,-16,1,13,-6,-1,29,-8,1
2435,-16,3,11,-5,0,26,-7,2
2436,-16,4,13,-5,0,25,-7,2
2437,-15,4,16,-5,1,23,-7,2
2438,-15,4,19,-5,1,20,-8,2
2439,-16,3,19,-6,1,19,-8,1
2440,-17,2,18,-6,0,18,-9,0
2441,-17,1,18,-7,-1,18,-9,-1
2442,-17,0,19,-8,-1,18,-9,-1
2443,-17,-1,21,-10,-2,20,-10,-1
2444,-17,-3,22,-12,-3,20,-11,-1
2445,-17,-4,20,-13,-3,19,-12,-1
2446,-17,-4,18,-13,-4,18,-12,-1
2447,-16,-5,17,-13,-4,19,-12,-1
2448,-15,-5,16,-12,-4,22,-11,-1
2449,-13,-4,14,-11,-4,23,-10,-1
2450,-11,-3,10,-9,-3,22,-8,-1
2451,-9,-2,7,-7,-2,21,-7,-1
2452,-8,-1,5,-5,-1,21,-6,-1
2453,-8,-1,4,-3,-1,21,-5,-1
2454,-9,-1,4,-2,0,19,-5,-1
2455,-10,-1,2,-2,1,14,-7,-1
2456,-11,-2,-1,-3,1,9,-8,-1
2457,-11,-2,-4,-3,1,6,-8,-1
2458,-9,-1,-5,-2,2,5,-7,0
2459,-7,-1,-5,-1,3,5,-4,0
2460,-4,1,-5,0,3,6,-2,0
2461,-1,2,-4,2,3,7,1,1
2462,1,2,-3,3,3,9,3,1
2463,3,3,-2,4,3,10,4,2
2464,6,4,-3,5,2,9,5,2
2465,9,5,-4,7,1,8,8,3
2466,12,5,-4,9,1,10,11,3
2467,14,6,-1,10,1,14,12,3
2468,14,6,2,10,1,18,12,3
2469,12,6,6,8,1,19,9,2
2470,8,6,8,5,1,19,6,2
2471,5,5,10,2,1,17,2,1
2472,2,4,12,-1,0,14,-1,1
2473,-1,3,12,-3,-2,11,-3,0
2474,-3,1,13,-5,-2,8,-5,-1
2475,-4,0,12,-7,-3,5,-7,-2
2476,-5,-1,12,-8,-3,4,-8,-3
2477,-6,-2,11,-9,-3,5,-9,-4
2478,-6,-2,10,-10,-3,6,-10,-4
2479,-6,-2,8,-10,-3,6,-11,-4
2480,-6,-2,5,-10,-3,4,-10,-4
2481,-6,-1,3,-9,-2,1,-10,-4
2482,-5,-1,3,-9,-1,2,-9,-4
2483,-5,0,4,-8,0,5,-9,-5
2484,-4,1,5,-8,1,10,-8,-5
2485,-3,2,6,-7,1,13,-8,-4
2486,-3,3,6,-6,1,13,-8,-4
2487,-3,3,7,-5,0,14,-8,-4
2488,-3,3,10,-4,-1,18,-8,-4
2489,-4,2,13,-5,-2,21,-9,-5
2490,-5,1,16,-6,-2,23,-9,-6
2491,-7,-1,18,-7,-3,22,-10,-7
2492,-8,-2,20,-8,-3,19,-11,-7
2493,-9,-2,23,-9,-3,19,-12,-8
2494,-10,-2,25,-10,-3,19,-12,-7
2495,-11,-1,26,-10,-4,20,-13,-7
2496,-12,0,24,-11,-4,20,-14,-7
2497,-13,0,21,-11,-4,19,-14,-7
2498,-12,1,19,-10,-4,16,-13,-6
2499,-11,0,16,-8,-3,11,-10,-5
2500,-9,0,12,-5,-2,5,-7,-5
2501,-6,-1,7,-2,-1,0,-4,-4
2502,-3,-1,4,1,-1,-4,0,-2
2503,1,0,3,3,-1,-5,3,-1
2504,3,2,3,6,0,-5,5,0
2505,5,4,3,8,0,-5,7,1
2506,6,6,3,10,0,-2,8,3
2507,6,7,5,11,1,4,8,4
2508,5,9,8,11,1,13,8,5
2509,3,9,9,10,1,20,6,5
2510,2,8,8,7,1,22,3,4
2511,1,7,6,4,1,21,1,3
2512,2,6,4,3,1,21,0,2
2513,5,6,3,2,1,21,1,2
2514,9,5,1,3,0,21,3,1
2515,12,5,-1,3,0,22,5,1
2516,14,5,-1,4,0,23,6,2
2517,14,5,-1,4,-1,25,6,2
2518,14,4,2,3,-1,30,5,2
2519,13,4,5,3,-1,33,4,1
2520,11,4,6,4,0,33,4,0
2521,9,4,7,5,0,29,3,-1
2522,7,4,7,6,0,25,2,-2
2523,5,3,7,6,0,23,0,-3
2524,4,3,5,6,0,21,-2,-3
2525,4,2,4,5,-1,18,-4,-3
2526,4,2,2,4,-1,14,-5,-3
2527,4,2,0,3,-2,10,-5,-3
2528,4,2,-1,3,-2,10,-5,-3
2529,4,3,-2,3,-2,12,-5,-3
2530,5,3,-2,3,-2,15,-4,-2
2531,5,3,-2,4,-1,16,-3,-2
2532,6,3,-2,4,-1,12,-3,-1
2533,5,4,-2,4,1,10,-3,0
2534,4,5,1,3,2,12,-4,1
2535,3,5,4,2,3,17,-5,2
2536,2,6,5,0,5,21,-7,3
2537,0,6,4,-2,5,20,-7,2
2538,-1,5,4,-3,6,17,-8,1
2539,-1,4,5,-4,6,16,-7,0
2540,-1,3,7,-4,5,16,-7,-1
2541,1,1,8,-3,4,16,-6,-1
2542,2,-1,8,-2,3,14,-5,-2
2543,4,-2,7,-1,2,12,-3,-2
2544,4,-2,8,-1,1,10,-2,-2
2545,4,-2,8,0,1,10,-1,-2
2546,4,-1,8,1,1,8,0,-2
2547,4,0,6,1,1,6,1,-2
2548,5,1,4,1,1,2,1,-2
2549,5,1,3,2,2,-1,2,-1
2550,6,2,1,2,3,-5,2,-1
2551,6,4,0,3,4,-7,3,-1
2552,7,5,-1,4,5,-9,4,1
2553,8,6,-1,5,6,-9,5,2
2554,9,7,0,6,6,-8,5,4
2555,11,7,2,7,5,-7,6,5
2556,12,7,4,8,5,-5,7,6
2557,13,7,5,8,4,-4,7,6
2558,13,6,8,8,3,-5,8,6
2559,13,6,13,8,3,-8,7,5
2560,12,6,18,8,3,-13,7,5
2561,10,6,21,7,3,-18,6,5
2562,8,8,24,6,3,-19,4,5
2563,5,9,28,3,3,-18,1,5
2564,1,11,33,0,4,-15,-3,6
2565,-2,11,37,-3,4,-14,-6,6
2566,-4,11,39,-6,5,-16,-8,6
2567,-4,10,38,-7,5,-19,-8,6
2568,-3,9,34,-8,4,-24,-8,5
2569,-2,7,29,-9,3,-27,-8,3
2570,-2,6,24,-10,1,-31,-8,2
2571,-3,4,19,-12,0,-34,-9,0
2572,-4,3,15,-14,-1,-38,-11,0
2573,-4,2,11,-16,-1,-43,-12,0
2574,-4,1,8,-17,-1,-47,-13,0
2575,-3,1,7,-17,-1,-47,-14,1
2576,-3,1,7,-17,-2,-47,-14,1
2577,-4,2,8,-17,-2,-46,-14,2
2578,-4,2,7,-16,-2,-45,-15,2
2579,-5,2,8,-16,-1,-43,-16,2
2580,-5,2,9,-15,-1,-39,-16,2
2581,-6,2,12,-15,0,-37,-17,2
2582,-8,1,14,-16,0,-37,-17,1
2583,-9,0,13,-16,0,-40,-17,0
2584,-10,0,12,-16,0,-41,-17,-1
2585,-10,-1,11,-16,-1,-39,-16,-1
2586,-9,-1,10,-16,-1,-38,-15,-2
2587,-8,-1,10,-15,-2,-39,-14,-2
2588,-7,-2,7,-14,-3,-42,-13,-2
2589,-7,-3,5,-12,-3,-42,-13,-2
2590,-7,-3,5,-11,-4,-40,-12,-2
2591,-7,-3,6,-11,-4,-38,-12,-2
2592,-7,-3,8,-11,-4,-37,-11,-3
2593,-8,-4,10,-12,-4,-37,-12,-3
2594,-9,-5,11,-13,-5,-36,-12,-5
2595,-10,-6,13,-14,-6,-33,-13,-7
2596,-11,-7,12,-16,-7,-31,-14,-8
2597,-11,-8,11,-16,-8,-31,-16,-9
2598,-11,-9,10,-17,-8,-32,-17,-10
2599,-10,-10,11,-17,-8,-30,-17,-10
2600,-10,-11,14,-17,-8,-27,-17,-9
2601,-9,-11,16,-16,-9,-25,-16,-9
2602,-9,-11,17,-16,-9,-26,-16,-9
2603,-10,-11,17,-16,-10,-27,-14,-9
2604,-10,-10,17,-15,-9,-27,-14,-8
2605,-10,-9,18,-14,-9,-25,-13,-8
2606,-10,-8,18,-13,-8,-22,-12,-7
2607,-9,-7,16,-12,-8,-22,-12,-5
2608,-8,-6,12,-12,-8,-25,-11,-4
2609,-8,-5,10,-11,-8,-26,-11,-3
2610,-6,-5,9,-10,-7,-25,-11,-2
2611,-5,-5,8,-10,-6,-21,-10,-1
2612,-3,-5,4,-8,-6,-21,-9,-1
2613,-2,-4,-3,-7,-5,-24,-7,0
2614,1,-3,-9,-5,-4,-28,-5,1
2615,2,-1,-14,-3,-3,-25,-2,2
2616,4,1,-16,-1,-2,-19,1,3
2617,5,3,-18,1,0,-14,2,4
2618,5,5,-21,2,1,-16,3,5
2619,5,6,-25,3,2,-23,3,5
2620,6,7,-25,3,3,-28,2,5
2621,6,7,-21,3,3,-25,1,5
2622,5,6,-17,3,3,-20,1,5
2623,5,6,-17,2,3,-19,0,5
2624,4,7,-20,2,2,-23,0,5
2625,4,7,-20,2,2,-27,0,6
2626,5,8,-15,2,1,-24,1,6
2627,6,8,-8,3,0,-14,1,7
2628,7,8,-3,3,0,-4,2,7
2629,8,9,-1,3,-1,0,2,7
2630,8,9,1,2,-1,-1,1,7
2631,8,8,6,1,-1,2,0,7
2632,9,8,12,1,-1,7,0,6
2633,11,7,16,2,-1,12,2,6
2634,13,5,14,4,-1,13,6,5
2635,17,4,9,7,-2,12,10,3
2636,21,3,4,9,-2,13,16,2
2637,24,2,1,12,-3,19,20,0
2638,26,2,1,14,-3,25,23,0
2639,28,3,0,16,-2,28,26,0
2640,30,4,-3,18,-2,28,28,1
2641,31,5,-6,20,-1,28,31,1
2642,33,6,-7,21,0,31,32,2
2643,34,7,-5,22,1,36,32,3
2644,35,7,-2,23,2,39,32,4
2645,37,8,-1,25,3,37,33,5
2646,39,8,-3,27,3,32,34,6
2647,40,8,-6,29,4,26,36,8
2648,41,9,-7,31,4,23,38,9
2649,41,9,-7,32,5,23,39,10
2650,40,10,-9,33,6,22,39,10
2651,39,10,-12,33,7,20,38,12
2652,38,10,-17,33,8,18,37,13
2653,36,11,-20,32,9,20,35,14
2654,35,12,-20,30,9,25,33,14
2655,32,12,-18,27,9,30,30,14
2656,30,12,-18,23,9,31,27,12
2657,27,11,-20,19,8,29,24,11
2658,23,10,-21,15,7,28,20,9
2659,20,8,-19,10,6,31,16,7
2660,16,7,-14,6,5,33,11,6
2661,12,6,-10,2,4,34,7,5
2662,10,5,-8,-1,3,33,3,5
2663,8,5,-8,-3,3,32,1,4
2664,6,4,-8,-4,2,30,-2,4
2665,4,3,-10,-5,1,27,-4,3
2666,2,1,-11,-6,1,23,-6,2
2667,1,-1,-11,-8,0,22,-7,0
2668,0,-2,-12,-9,-1,22,-8,-1
2669,0,-3,-13,-9,-1,21,-8,-2
2670,1,-3,-16,-9,-2,19,-9,-2
2671,1,-3,-18,-9,-2,22,-9,-2
2672,0,-3,-20,-9,-2,29,-10,-1
2673,0,-3,-20,-9,-2,34,-11,-1
2674,-1,-3,-20,-9,-1,34,-11,0
2675,-2,-3,-19,-9,0,29,-12,-1
2676,-4,-2,-16,-9,0,26,-12,-1
2677,-5,-2,-11,-10,0,25,-12,-2
2678,-7,-3,-8,-11,0,25,-13,-4
2679,-9,-3,-7,-12,-1,26,-15,-4
2680,-9,-4,-8,-12,-1,25,-16,-5
2681,-10,-5,-7,-12,-2,23,-16,-4
2682,-10,-5,-5,-12,-2,21,-17,-4
2683,-11,-6,-4,-13,-3,17,-17,-4
2684,-12,-7,-6,-14,-3,12,-17,-5
2685,-13,-7,-8,-16,-3,5,-17,-6
2686,-14,-8,-10,-17,-4,0,-17,-7
2687,-14,-10,-10,-18,-4,-3,-18,-7
2688,-14,-10,-9,-19,-4,-4,-18,-8
2689,-13,-10,-8,-18,-4,-3,-17,-8
2690,-12,-10,-7,-17,-3,-2,-16,-7
2691,-11,-9,-5,-16,-2,-2,-15,-7
2692,-11,-9,-4,-13,-1,-4,-14,-7
2693,-10,-8,-5,-11,-1,-7,-12,-6
2694,-9,-7,-8,-9,-1,-10,-11,-5
2695,-8,-7,-11,-7,-1,-12,-10,-5
2696,-6,-6,-12,-6,-1,-13,-9,-4
2697,-5,-6,-12,-5,-2,-14,-9,-4
2698,-4,-6,-14,-5,-2,-15,-8,-5
2699,-4,-6,-17,-6,-3,-16,-8,-5
2700,-3,-6,-20,-6,-3,-16,-8,-6
2701,-4,-6,-20,-7,-3,-15,-9,-6
2702,-4,-6,-18,-7,-4,-12,-9,-6
2703,-5,-5,-17,-8,-4,-9,-10,-5
2704,-6,-5,-16,-8,-4,-6,-11,-5
2705,-6,-5,-15,-9,-4,-3,-11,-4
2706,-5,-5,-13,-9,-3,-2,-11,-4
2707,-4,-5,-11,-9,-3,-2,-10,-3
2708,-3,-6,-10,-9,-2,-2,-10,-3
2709,-3,-6,-10,-8,-1,-1,-9,-2
2710,-3,-6,-10,-7,0,0,-9,-2
2711,-2,-6,-10,-6,1,-1,-9,-1
2712,-2,-6,-10,-6,1,-2,-9,-1
2713,-3,-6,-9,-6,1,-3,-9,0
2714,-3,-6,-7,-5,1,-2,-8,0
2715,-3,-6,-6,-5,0,-1,-8,-1
2716,-3,-6,-6,-4,-1,1,-7,-2
2717,-2,-7,-9,-4,-2,3,-7,-3
2718,-2,-8,-11,-5,-4,6,-7,-4
2719,-2,-9,-13,-5,-4,9,-7,-5
2720,-2,-10,-16,-6,-5,11,-7,-5
2721,-2,-11,-17,-5,-5,11,-7,-5
2722,-2,-11,-16,-4,-5,10,-7,-5
2723,-1,-11,-14,-3,-5,9,-7,-5
2724,0,-11,-12,-2,-5,6,-7,-4
2725,1,-11,-12,-1,-4,4,-8,-3
2726,2,-10,-12,0,-4,3,-7,-2
2727,4,-9,-12,3,-3,5,-4,-1
2728,8,-7,-13,7,-2,4,2,0
2729,13,-6,-16,12,-1,1,8,1
2730,18,-4,-20,18,0,-5,15,1
2731,22,-3,-23,22,1,-9,21,1
2732,25,-1,-24,25,2,-9,26,1
2733,27,0,-23,27,3,-6,30,2
2734,29,1,-24,29,3,-2,33,2
2735,31,2,-26,31,4,1,38,3
2736,33,2,-30,34,4,0,41,4
2737,34,2,-33,36,4,-1,45,5
2738,35,3,-33,38,4,2,47,6
2739,34,4,-33,40,3,4,48,6
2740,33,5,-34,41,3,5,49,6
2741,32,6,-35,41,3,4,50,6
2742,31,6,-35,40,2,3,50,5
2743,30,6,-34,40,2,2,49,4
2744,29,6,-32,39,2,1,49,4
2745,28,6,-32,40,2,-3,49,3
2746,28,6,-33,40,1,-6,48,4
2747,27,7,-31,40,2,-7,47,5
2748,26,7,-26,40,2,-5,45,6
2749,24,8,-22,39,3,-3,41,7
2750,22,8,-23,38,3,-5,38,8
2751,21,8,-26,36,3,-8,36,8
2752,19,9,-30,34,3,-12,33,8
2753,18,9,-30,32,2,-13,31,8
2754,16,8,-29,29,1,-12,28,7
2755,14,7,-28,26,1,-12,25,6
2756,12,6,-28,23,0,-14,23,5
2757,9,4,-30,20,0,-19,20,3
2758,7,2,-30,17,0,-22,17,1
2759,4,0,-29,13,-1,-22,13,-1
2760,1,-2,-27,9,-1,-20,10,-3
2761,-3,-4,-26,5,-1,-19,6,-4
2762,-7,-5,-27,1,-2,-20,2,-4
2763,-11,-5,-27,-2,-2,-24,-3,-5
2764,-14,-5,-26,-6,-2,-26,-6,-5
2765,-18,-4,-25,-10,-2,-26,-10,-5
2766,-20,-4,-25,-14,-2,-24,-13,-5
2767,-21,-3,-28,-17,-1,-24,-14,-5
2768,-21,-2,-30,-19,-1,-24,-14,-5
2769,-21,-1,-29,-19,0,-23,-13,-5
2770,-20,0,-27,-18,1,-22,-13,-5
2771,-19,1,-24,-17,1,-22,-12,-4
2772,-19,1,-23,-16,2,-23,-12,-4
2773,-19,1,-22,-16,3,-24,-12,-3
2774,-19,2,-22,-14,3,-25,-12,-2
2775,-19,3,-24,-13,3,-28,-12,0
2776,-19,4,-28,-12,3,-33,-12,1
2777,-19,6,-32,-11,3,-39,-11,2
2778,-20,6,-35,-10,3,-44,-12,3
2779,-21,6,-36,-10,3,-48,-12,3
2780,-21,4,-37,-11,3,-52,-12,2
2781,-21,2,-39,-11,2,-58,-12,0
2782,-21,0,-41,-12,1,-66,-12,-3
2783,-21,-3,-44,-13,0,-73,-12,-5
2784,-21,-6,-45,-13,-1,-79,-13,-7
2785,-22,-9,-46,-13,-2,-82,-13,-9
2786,-22,-10,-46,-14,-3,-83,-14,-9
2787,-23,-11,-46,-15,-4,-81,-14,-10
2788,-24,-10,-42,-16,-5,-77,-15,-10
2789,-25,-10,-38,-17,-5,-70,-16,-11
2790,-25,-9,-33,-18,-6,-64,-16,-11
2791,-25,-7,-30,-18,-6,-59,-17,-10
2792,-25,-6,-28,-19,-6,-54,-18,-10
2793,-25,-4,-26,-21,-6,-48,-20,-9
2794,-25,-3,-22,-22,-6,-39,-21,-8
2795,-24,-2,-17,-23,-6,-30,-22,-7
2796,-24,-2,-13,-24,-5,-22,-23,-6
2797,-22,-2,-13,-24,-5,-18,-22,-5
2798,-21,-2,-14,-24,-4,-17,-21,-4
2799,-20,-2,-14,-23,-3,-17,-20,-4
2800,-19,-2,-15,-23,-3,-17,-18,-4
2801,-18,-2,-15,-22,-4,-20,-18,-4
2802,-17,-2,-14,-20,-4,-22,-17,-4
2803,-17,-2,-14,-19,-4,-24,-16,-5
2804,-17,-2,-12,-18,-4,-21,-14,-5
2805,-17,-2,-9,-17,-5,-14,-14,-6
2806,-18,-3,-5,-16,-6,-6,-13,-7
2807,-19,-4,-3,-16,-6,-1,-14,-7
2808,-20,-5,-1,-17,-6,3,-14,-8
2809,-21,-7,1,-18,-7,7,-16,-8
2810,-23,-8,4,-19,-7,14,-18,-9
2811,-24,-8,8,-20,-7,21,-20,-9
2812,-24,-8,10,-21,-7,26,-20,-9
2813,-23,-8,10,-19,-7,27,-19,-9
2814,-21,-8,10,-17,-7,28,-17,-8
2815,-18,-8,11,-14,-5,32,-13,-7
2816,-15,-7,13,-11,-4,35,-10,-6
2817,-13,-6,14,-9,-3,40,-7,-5
2818,-12,-5,16,-8,-2,46,-6,-5
2819,-11,-4,19,-8,-2,52,-5,-4
2820,-10,-4,24,-8,-3,60,-3,-4
2821,-9,-3,29,-7,-3,67,-2,-3
2822,-7,-3,32,-6,-3,70,-1,-2
2823,-6,-2,34,-5,-3,71,0,-2
2824,-6,-2,36,-5,-3,74,1,-2
2825,-6,-1,37,-5,-3,78,1,-1
2826,-6,-1,36,-5,-2,80,0,-1
2827,-6,-1,34,-6,-2,78,0,-1
2828,-6,-1,31,-7,-1,76,-1,-1
2829,-8,-1,31,-8,0,76,-2,-1
2830,-9,-1,32,-10,1,79,-4,-2
2831,-11,-1,34,-11,2,81,-4,-2
2832,-12,0,35,-11,2,83,-5,-2
2833,-13,1,37,-11,2,82,-5,-1
2834,-14,1,39,-11,2,81,-6,0
2835,-14,2,41,-10,2,81,-7,1
2836,-15,2,43,-10,2,84,-8,2
2837,-16,2,45,-10,1,89,-9,2
2838,-17,3,45,-10,0,93,-10,2
2839,-18,3,45,-10,-1,94,-11,2
2840,-18,3,47,-10,-1,96,-12,2
2841,-19,4,49,-10,-2,99,-12,2
2842,-20,4,51,-11,-2,106,-12,2
2843,-20,4,54,-12,-4,115,-11,2
2844,-20,4,61,-13,-6,132,-9,1
2845,-20,3,76,-13,-9,163,-6,1
2846,-20,3,95,-13,-13,206,-2,0
2847,-20,2,116,-13,-16,255,2,0
2848,-21,4,134,-13,-19,304,6,1
2849,-21,6,146,-13,-20,348,10,3
2850,-21,8,151,-12,-19,378,11,4
2851,-19,9,144,-12,-17,382,10,5
2852,-17,8,125,-11,-13,355,7,4
2853,-14,6,96,-10,-8,303,2,3
2854,-12,4,61,-9,-3,236,-3,1
2855,-10,2,24,-8,2,168,-7,0
2856,-8,0,-7,-6,5,111,-9,-1
2857,-7,-1,-29,-5,6,74,-11,0
2858,-6,-1,-41,-3,6,54,-10,1
2859,-4,-1,-49,-2,6,43,-9,2
2860,-3,-1,-56,-1,6,34,-9,2
2861,-3,-2,-60,0,6,26,-9,2
2862,-3,-2,-63,0,6,22,-9,2
2863,-4,-2,-65,0,5,18,-9,2
2864,-6,-2,-68,0,4,13,-9,3
2865,-6,-1,-68,0,2,11,-9,3
2866,-7,-1,-63,0,0,16,-7,3
2867,-6,1,-56,0,-1,24,-5,2
2868,-6,2,-54,0,-1,24,-4,2
2869,-6,3,-55,0,1,16,-5,2
2870,-5,3,-56,-1,2,7,-6,2
2871,-5,3,-57,-2,4,-1,-7,2
2872,-5,3,-59,-2,5,-7,-8,2
2873,-5,2,-62,-3,6,-13,-8,1
2874,-4,1,-65,-3,7,-18,-7,1
2875,-3,1,-64,-3,7,-19,-7,1
2876,-3,2,-62,-3,6,-17,-6,1
2877,-3,3,-60,-3,6,-15,-6,1
2878,-3,4,-57,-1,6,-16,-6,2
2879,-3,6,-53,0,6,-20,-5,2
2880,-2,6,-46,1,6,-25,-5,2
2881,-2,6,-36,2,6,-29,-4,2
2882,0,5,-26,1,5,-33,-4,2
2883,1,3,-19,1,4,-38,-5,1
2884,3,2,-16,1,3,-43,-6,0
2885,4,0,-14,0,2,-49,-6,-1
2886,5,-1,-14,1,1,-55,-6,-1
2887,5,-2,-14,1,2,-59,-6,-1
2888,4,-2,-14,1,3,-61,-6,-1
2889,4,-1,-14,2,3,-63,-5,0
2890,3,0,-14,2,3,-64,-5,1
2891,3,1,-12,2,4,-63,-4,2
2892,3,2,-7,2,4,-59,-4,3
2893,2,3,-2,2,4,-53,-4,4
2894,0,5,0,2,5,-50,-4,4
2895,-1,6,-2,2,5,-52,-3,5
2896,-2,6,-4,2,6,-56,-3,4
2897,-2,6,-3,3,6,-59,-3,4
2898,-2,6,-2,2,5,-61,-3,3
2899,-1,5,0,2,5,-60,-3,3
2900,-2,4,1,2,4,-57,-4,2
2901,-2,3,2,1,4,-55,-5,1
2902,-3,3,4,1,4,-53,-6,1
2903,-5,3,5,1,3,-53,-8,2
2904,-7,3,6,0,3,-53,-8,2
2905,-7,4,6,1,3,-54,-8,3
2906,-7,4,6,1,4,-54,-7,4
2907,-6,4,6,1,4,-54,-6,4
2908,-4,3,6,1,4,-55,-4,3
2909,-1,1,5,0,4,-56,-3,3
2910,2,-1,5,0,3,-58,-2,2
2911,4,-3,6,-1,2,-62,-1,1
2912,5,-5,8,-3,2,-65,-2,0
2913,5,-6,11,-4,2,-67,-3,0
2914,4,-5,12,-5,2,-66,-4,0
2915,3,-4,13,-5,2,-65,-5,1
2916,1,-3,15,-6,2,-62,-6,2
2917,-1,-2,19,-7,1,-59,-8,3
2918,-2,-1,23,-7,1,-58,-9,3
2919,-3,0,24,-8,1,-57,-10,3
2920,-5,0,25,-9,2,-56,-10,2
2921,-6,-1,25,-9,1,-53,-11,1
2922,-7,-1,27,-10,1,-49,-11,0
2923,-8,-2,29,-10,0,-47,-11,-1
2924,-8,-3,31,-10,-1,-46,-11,-2
2925,-8,-3,31,-10,-2,-48,-11,-3
2926,-7,-3,30,-9,-2,-50,-10,-3
2927,-6,-3,32,-9,-2,-54,-9,-3
2928,-4,-4,34,-8,-2,-61,-9,-4
2929,-3,-4,36,-7,-2,-69,-8,-3
2930,-2,-5,36,-6,-2,-76,-8,-3
2931,-1,-4,33,-5,-2,-80,-8,-2
2932,0,-4,30,-5,-1,-80,-7,-1
2933,1,-2,28,-4,-2,-79,-6,0
2934,1,0,27,-3,-2,-79,-5,1
2935,1,1,26,-3,-2,-81,-4,2
2936,1,2,24,-3,-1,-83,-4,3
2937,1,3,22,-3,0,-81,-4,4
2938,1,2,21,-3,2,-78,-5,4
2939,1,2,22,-3,3,-77,-7,5
2940,0,1,23,-3,3,-76,-7,5
2941,0,0,23,-3,3,-76,-8,4
2942,-1,-1,23,-3,2,-71,-8,4
2943,-2,-2,23,-4,1,-65,-8,3
2944,-2,-3,24,-4,0,-62,-8,2
2945,-3,-4,26,-5,-1,-62,-9,2
2946,-3,-5,27,-5,0,-62,-10,1
2947,-4,-5,27,-6,0,-58,-10,1
2948,-5,-4,28,-7,0,-51,-11,1
2949,-5,-3,29,-8,1,-45,-11,1
2950,-6,-2,30,-9,1,-40,-11,2
2951,-6,1,29,-9,0,-39,-11,3
2952,-6,3,28,-9,0,-37,-11,4
2953,-5,4,27,-8,-1,-35,-11,5
2954,-5,5,25,-8,-1,-34,-10,5
2955,-5,5,22,-8,-1,-36,-9,5
2956,-5,5,19,-7,-1,-37,-9,5
2957,-4,4,16,-7,-1,-34,-8,5
2958,-4,3,11,-6,0,-28,-8,5
2959,-3,3,5,-5,0,-22,-7,5
2960,-3,3,-1,-4,1,-19,-6,5
2961,-2,4,-5,-2,2,-19,-5,6
2962,-2,5,-7,-2,4,-19,-5,6
2963,-2,5,-8,-1,5,-16,-4,7
2964,-2,5,-10,-1,6,-11,-5,8
2965,-3,5,-12,-1,6,-9,-5,8
2966,-4,5,-14,-1,6,-9,-6,8
2967,-5,5,-13,-1,6,-10,-7,7
2968,-6,4,-12,-2,5,-9,-7,5
2969,-7,3,-10,-4,5,-7,-9,4
2970,-9,2,-10,-6,4,-6,-11,2
2971,-10,2,-12,-9,3,-6,-13,-1
2972,-11,1,-13,-11,1,-7,-14,-3
2973,-11,0,-14,-12,0,-6,-14,-5
2974,-10,-1,-16,-13,-1,-4,-13,-5
2975,-8,-1,-18,-13,-2,-2,-11,-5
2976,-6,-1,-19,-12,-2,-1,-9,-5
2977,-5,-1,-18,-11,-1,-1,-7,-4
2978,-4,-1,-16,-10,-1,2,-7,-2
2979,-4,0,-13,-9,0,5,-7,-1
2980,-3,1,-11,-8,1,7,-7,0
2981,-3,2,-11,-6,1,7,-6,1
2982,-2,3,-12,-4,2,6,-4,2
2983,-2,3,-12,-3,2,6,-3,3
2984,-3,3,-11,-2,2,9,-2,3
2985,-2,3,-10,-1,2,13,-1,4
2986,-2,3,-11,-1,2,14,-1,4
2987,-1,3,-12,-1,2,12,0,4
2988,0,3,-13,-1,2,12,1,4
2989,1,3,-13,-1,1,15,1,4
2990,1,2,-13,0,1,18,1,3
2991,1,2,-13,0,0,19,2,3
2992,1,2,-13,1,-1,18,2,2
2993,2,1,-14,1,-2,20,3,1
2994,3,1,-15,1,-2,23,4,1
2995,3,1,-16,1,-2,26,4,0
2996,4,0,-16,1,-1,25,5,-1
2997,4,-1,-14,0,0,22,5,-1
2998,3,-1,-12,-1,0,20,4,-1
2999,3,-2,-11,-1,0,20,4,-1
3000,2,-1,-12,-2,-1,22,3,-1
3001,1,-1,-13,-2,-1,24,2,-1
3002,1,-1,-14,-3,-1,25,1,-1
3003,0,-1,-13,-3,-1,23,1,-2
3004,0,-1,-11,-3,-1,21,0,-3
3005,-1,-2,-9,-3,-1,19,-1,-3
3006,-1,-3,-10,-4,0,16,-3,-4
3007,-2,-5,-12,-5,1,11,-4,-4
3008,-2,-6,-13,-6,2,6,-6,-5
3009,-3,-7,-12,-7,3,3,-7,-4
3010,-4,-7,-11,-7,3,1,-8,-4
3011,-4,-8,-12,-7,2,2,-9,-4
3012,-4,-9,-12,-7,2,2,-8,-3
3013,-3,-9,-9,-6,2,2,-8,-3
3014,-2,-10,-4,-6,2,-1,-7,-3
3015,-1,-10,3,-6,2,-3,-7,-2
3016,0,-10,7,-6,2,-3,-7,-2
3017,-1,-9,7,-6,2,-2,-7,-2
3018,-1,-8,7,-7,2,-2,-8,-3
3019,-2,-7,9,-7,2,-3,-9,-3
3020,-3,-6,11,-8,1,-4,-9,-4
3021,-4,-5,12,-7,1,-6,-10,-4
3022,-4,-4,11,-7,1,-8,-10,-4
3023,-4,-2,10,-6,1,-8,-9,-3
3024,-2,-1,10,-5,1,-5,-7,-2
3025,0,1,10,-3,2,-2,-6,-1
3026,2,2,10,-2,2,-1,-5,1
3027,3,2,10,-1,1,-3,-3,2
3028,4,2,8,0,1,-6,-2,2
3029,5,1,7,0,0,-9,0,2
3030,6,-1,7,1,0,-9,1,2
3031,7,-2,8,1,0,-10,2,1
3032,8,-4,8,2,0,-12,2,0
3033,9,-5,7,2,0,-14,2,-1
3034,10,-6,4,2,0,-16,2,-3
3035,10,-7,3,1,0,-17,2,-3
3036,10,-7,2,0,0,-19,2,-4
3037,9,-7,2,-1,0,-22,2,-4
3038,8,-6,1,-1,-1,-26,2,-4
3039,6,-5,-1,-2,-1,-29,2,-4
3040,5,-5,0,-2,-1,-30,1,-4
3041,4,-4,2,-2,-1,-33,0,-4
3042,4,-5,2,-1,-2,-38,-1,-4
3043,4,-6,2,-1,-2,-45,-2,-4
3044,4,-7,3,0,-3,-51,-2,-5
3045,4,-8,8,1,-3,-56,-2,-5
3046,4,-8,13,2,-3,-62,-1,-6
3047,4,-8,17,3,-3,-66,0,-6
3048,4,-8,18,5,-2,-67,2,-6
3049,5,-7,18,6,-2,-62,2,-6
3050,5,-7,16,6,-2,-53,2,-5
3051,5,-7,13,6,-2,-48,2,-5
3052,4,-7,12,6,-2,-49,1,-5
3053,4,-8,11,5,-2,-55,0,-4
3054,3,-8,10,4,-2,-61,-1,-4
3055,3,-9,9,3,-2,-61,-2,-4
3056,3,-9,7,3,-2,-59,-3,-3
3057,3,-9,6,3,-3,-58,-3,-2
3058,4,-9,5,3,-3,-58,-3,-1
3059,5,-9,5,4,-4,-59,-3,-1
3060,6,-9,6,5,-4,-58,-2,-2
3061,7,-9,6,5,-4,-56,-2,-3
3062,7,-9,6,5,-4,-53,-2,-4
3063,7,-8,5,4,-4,-53,-2,-4
3064,7,-8,6,4,-3,-56,-3,-3
3065,7,-7,7,3,-2,-56,-4,-3
3066,6,-7,9,3,-2,-55,-4,-3
3067,6,-6,9,4,-2,-51,-3,-2
3068,5,-5,7,5,-2,-47,-1,-2
3069,5,-4,5,6,-3,-45,0,-2
3070,4,-2,3,8,-3,-41,2,-1
3071,4,-1,1,8,-3,-38,3,0
3072,4,1,0,8,-3,-33,4,1
3073,5,2,-1,9,-3,-30,5,2
3074,5,2,-3,9,-3,-29,6,2
3075,6,2,-3,10,-3,-28,7,2
3076,7,1,0,10,-3,-26,7,2
3077,7,0,3,10,-3,-24,8,2
3078,7,-1,6,9,-3,-21,7,2
3079,6,-2,8,7,-3,-21,6,1
3080,5,-2,9,5,-2,-20,5,1
3081,4,-2,9,4,-2,-19,3,0
3082,3,-2,9,3,-2,-16,2,0
3083,2,-2,9,2,-3,-13,1,0
3084,2,-1,9,2,-3,-13,1,0
3085,2,0,9,3,-3,-14,1,0
3086,2,1,10,3,-4,-17,1,0
3087,2,1,9,3,-4,-19,1,-1
3088,1,2,6,4,-4,-20,1,-1
3089,1,2,4,4,-4,-21,2,-1
3090,1,2,4,4,-4,-21,2,-1
3091,0,2,5,4,-4,-20,1,0
3092,-1,3,6,4,-3,-19,1,0
3093,-1,5,5,4,-2,-21,1,1
3094,-1,5,2,4,-1,-23,1,2
3095,-1,6,1,4,1,-23,1,2
3096,-1,6,0,4,1,-20,0,2
3097,0,4,0,4,2,-19,0,3
3098,0,3,-1,3,2,-20,0,2
3099,0,1,-1,2,1,-21,0,2
3100,0,0,-1,1,0,-20,0,2
3101,0,-1,1,1,0,-17,0,1
3102,-1,-1,1,-1,0,-13,0,1
3103,-1,-1,1,-2,0,-12,0,1
3104,-1,0,0,-3,0,-14,0,1
3105,-1,0,2,-3,0,-17,1,0
3106,-1,1,5,-3,0,-19,2,0
3107,-1,1,9,-3,0,-20,3,1
3108,-1,0,11,-2,0,-19,3,1
3109,0,0,11,-1,0,-19,3,2
3110,1,1,11,1,1,-19,3,2
3111,2,1,11,3,1,-18,4,3
3112,2,3,13,4,1,-15,5,4
3113,3,4,14,6,0,-11,5,5
3114,4,4,14,7,0,-10,6,6
3115,5,4,14,8,0,-11,7,6
3116,7,3,16,8,0,-12,7,7
3117,9,2,19,8,0,-12,8,6
3118,10,2,22,7,0,-12,9,5
3119,11,2,23,7,1,-12,9,5
3120,11,3,23,7,1,-13,10,5
3121,11,3,24,7,2,-12,10,5
3122,11,4,27,7,2,-10,9,5
3123,11,4,32,6,2,-8,9,5
3124,10,4,37,5,2,-5,8,5
3125,9,4,40,4,2,-4,7,5
3126,7,4,42,3,2,-3,6,5
3127,5,5,43,2,3,-4,5,5
3128,4,5,44,2,4,-6,4,5
3129,3,6,42,1,5,-8,4,5
3130,3,6,39,0,5,-10,5,5
3131,3,6,36,0,5,-11,5,5
3132,4,5,35,0,4,-8,5,4
3133,5,4,35,-1,3,-4,5,4
3134,6,4,34,-1,2,-3,5,5
3135,6,3,32,-2,1,-4,4,4
3136,6,3,30,-2,0,-5,4,4
3137,6,2,27,-3,0,-4,3,4
3138,6,2,25,-5,0,-4,2,4
3139,5,2,23,-6,0,-5,1,4
3140,4,2,20,-7,1,-6,0,3
3141,3,3,19,-7,1,-5,0,2
3142,1,3,17,-8,2,-1,0,2
3143,0,4,16,-8,2,2,0,2
3144,0,5,16,-8,2,1,-1,2
3145,-1,5,15,-8,2,-2,-1,2
3146,-1,4,13,-7,2,-5,-2,2
3147,-1,4,11,-7,2,-5,-2,2
3148,-1,3,9,-6,2,-5,-2,1
3149,-1,3,7,-5,2,-8,-1,2
3150,-1,3,5,-5,2,-12,0,2
3151,0,3,6,-4,2,-14,1,2
3152,0,3,7,-4,2,-11,1,2
3153,1,4,7,-3,2,-6,2,1
3154,1,4,6,-3,2,-3,2,1
3155,2,4,5,-2,3,-4,2,1
3156,3,4,5,-1,3,-7,3,2
3157,3,4,7,-1,4,-10,4,2
3158,4,4,8,-1,4,-10,4,2
3159,4,4,9,-1,3,-6,4,2
3160,4,4,8,-1,2,-4,4,1
3161,5,3,7,-2,0,-4,4,1
3162,5,3,8,-4,-1,-5,3,0
3163,4,4,10,-5,-1,-4,3,0
3164,3,4,10,-6,-1,-1,3,0
3165,1,5,8,-7,-1,1,3,0
3166,1,5,5,-7,-1,-3,3,0
3167,1,4,3,-6,-1,-8,3,0
3168,2,4,2,-5,-1,-11,3,0
3169,3,4,2,-3,-1,-12,4,0
3170,4,4,2,-2,-1,-11,4,-1
3171,4,4,2,0,0,-10,4,-1
3172,3,3,3,1,-1,-11,4,-2
3173,2,3,6,1,-1,-12,4,-2
3174,2,3,9,1,0,-13,4,-3
3175,1,2,13,1,0,-11,4,-3
3176,2,2,17,1,1,-10,4,-3
3177,2,2,19,1,1,-9,4,-2
3178,3,2,21,1,2,-8,5,-2
3179,4,2,21,2,2,-4,5,-1
3180,5,3,21,3,2,-1,5,0
3181,5,4,20,3,2,0,5,1
3182,5,5,21,4,3,0,4,2
3183,4,5,23,4,4,-1,4,3
3184,3,5,24,5,4,-1,4,4
3185,2,5,24,5,4,0,3,4
3186,1,4,23,4,4,-1,2,4
3187,1,5,21,3,5,-2,2,4
3188,0,5,18,2,5,-1,1,3
3189,1,4,15,0,6,0,1,3
3190,1,4,10,-1,6,-1,1,2
3191,1,3,7,-1,6,-2,2,1
3192,2,2,6,-1,5,-2,2,0
3193,3,1,8,-1,4,1,3,-1
3194,3,1,9,0,4,3,4,-1
3195,3,1,10,1,4,3,4,-1
3196,2,1,9,1,4,1,4,-1
3197,2,1,8,1,5,-1,4,-1
3198,1,1,8,1,6,-4,4,-1
3199,0,1,10,1,7,-7,4,-1
3200,0,1,12,2,7,-10,3,-1
3201,0,0,12,2,6,-11,2,-1
3202,0,0,12,2,6,-11,2,-1
3203,0,-1,13,2,5,-7,1,-1
3204,0,-1,14,1,5,-3,1,-1
3205,-1,-1,12,0,4,0,1,-2
3206,-1,-1,9,-1,3,1,2,-4
3207,-1,-1,6,-1,2,-1,3,-5
3208,-1,-1,4,-1,1,-1,4,-6
3209,-1,-2,3,-1,1,0,5,-6
3210,-1,-2,1,0,0,0,5,-6
3211,-1,-3,-1,1,-1,-1,5,-5
3212,-1,-4,-2,2,-1,-4,4,-5
3213,-1,-4,-1,2,-1,-6,4,-5
3214,-1,-5,1,3,-1,-5,3,-5
3215,-1,-5,3,3,0,-5,3,-5
3216,-1,-5,3,2,1,-5,3,-5
3217,0,-5,-1,2,2,-9,3,-4
3218,0,-5,-5,1,2,-15,4,-5
3219,1,-5,-8,1,2,-21,5,-5
3220,1,-4,-9,2,2,-25,6,-6
3221,2,-4,-9,3,2,-26,8,-6
3222,4,-3,-10,5,3,-26,9,-6
3223,5,-3,-11,7,3,-24,11,-5
3224,6,-2,-10,9,4,-21,12,-4
3225,6,0,-8,10,5,-19,12,-2
3226,5,1,-7,10,5,-17,12,-1
3227,4,2,-6,10,6,-17,11,-1
3228,2,3,-4,9,6,-17,10,0
3229,0,3,-2,9,6,-15,8,1
3230,-1,3,0,8,6,-12,6,1
3231,-2,3,2,7,5,-9,5,2
3232,-2,3,2,6,4,-8,3,2
3233,-2,2,2,5,4,-6,2,2
3234,-2,2,3,3,3,-3,2,2
3235,-2,2,4,3,2,0,2,2
3236,-1,2,5,2,1,1,2,2
3237,-2,2,4,2,-1,0,3,1
3238,-2,1,3,1,-2,-1,2,0
3239,-3,-1,3,1,-2,-1,1,-1
3240,-5,-2,4,0,-3,0,-1,-1
3241,-5,-2,4,-1,-3,1,-2,-1
3242,-5,-2,5,-1,-3,1,-2,-2
3243,-4,-1,6,-1,-2,2,-1,-2
3244,-3,0,7,1,-1,3,0,-2
3245,-1,0,7,2,0,2,2,-2
3246,1,0,6,4,1,0,3,-2
3247,2,0,4,6,1,-3,4,-1
3248,3,0,1,7,2,-6,4,-1
3249,3,0,-1,8,2,-8,4,-1
3250,3,0,-1,9,3,-10,4,0
3251,4,0,-2,9,3,-10,5,1
3252,4,1,-4,10,4,-10,5,3
3253,5,2,-7,10,4,-10,6,4
3254,5,3,-8,10,4,-9,6,5
3255,5,5,-6,10,4,-6,5,6
3256,4,6,-5,10,3,-4,5,6
3257,3,6,-4,9,2,-2,4,6
3258,1,6,-3,8,0,-1,3,5
3259,-1,5,1,6,-2,2,2,4
3260,-3,3,6,3,-3,7,1,2
3261,-5,1,10,0,-4,10,-1,0
3262,-7,0,12,-2,-5,11,-3,-2
3263,-8,-1,11,-3,-6,9,-4,-4
3264,-7,-1,10,-2,-6,8,-3,-4
3265,-6,-1,10,0,-6,9,-2,-5
3266,-4,0,12,2,-5,12,1,-4
3267,-2,1,13,4,-5,14,3,-3
3268,1,2,13,6,-3,15,5,-1
3269,3,3,12,8,-2,17,6,1
3270,4,4,11,10,-1,21,7,3
3271,5,4,10,11,-1,24,8,4
3272,6,4,10,12,-1,26,8,5
3273,7,4,8,13,-1,25,8,5
3274,7,4,8,13,-2,24,8,5
3275,7,4,8,13,-3,23,7,6
3276,6,4,9,13,-3,20,6,6
3277,6,5,8,13,-2,16,5,7
3278,5,5,7,12,-2,13,4,7
3279,4,6,5,11,-1,12,4,7
3280,3,7,4,9,-1,13,4,6
3281,3,6,3,7,-2,13,3,5
3282,2,5,3,5,-2,12,2,4
3283,1,4,2,2,-3,10,1,3
3284,1,2,2,0,-4,11,0,2
3285,0,1,4,-3,-6,17,-2,1
3286,-1,0,5,-5,-7,23,-3,-1
3287,-2,-1,7,-6,-8,26,-5,-2
3288,-4,-2,7,-8,-8,25,-6,-2
3289,-5,-3,7,-8,-8,23,-7,-3
3290,-5,-4,9,-8,-7,23,-7,-4
3291,-6,-4,11,-8,-6,24,-7,-4
3292,-6,-4,13,-8,-5,25,-7,-4
3293,-7,-4,14,-7,-4,25,-6,-3
3294,-6,-3,16,-6,-3,26,-6,-3
3295,-6,-3,18,-5,-2,29,-6,-2
3296,-5,-2,21,-4,-1,33,-6,-1
3297,-4,-1,25,-3,0,36,-5,-1
3298,-4,0,27,-3,1,38,-5,0
3299,-4,0,28,-2,2,36,-5,0
3300,-4,1,27,-2,2,33,-5,1
3301,-3,1,28,-1,2,33,-4,1
3302,-3,1,29,-1,2,37,-4,0
3303,-2,0,29,-1,1,39,-4,0
3304,-2,0,27,-2,0,37,-4,-1
3305,-1,-1,27,-2,-1,33,-4,-1
3306,-1,-1,28,-2,-1,31,-4,-1
3307,0,-2,31,-3,-1,29,-5,-1
3308,0,-2,32,-3,-1,28,-6,-1
3309,-1,-3,33,-5,-1,26,-7,-2
3310,-2,-4,35,-6,-1,25,-8,-3
3311,-3,-4,38,-8,-1,26,-9,-4
3312,-5,-5,40,-9,-2,27,-10,-6
3313,-6,-4,41,-11,-2,29,-11,-6
3314,-6,-3,41,-12,-2,29,-11,-6
3315,-6,-2,40,-12,-1,28,-12,-6
3316,-6,-1,40,-12,-1,28,-12,-5
3317,-5,0,39,-12,-1,30,-11,-5
3318,-4,-1,38,-12,0,32,-11,-4
3319,-3,-2,37,-12,-1,32,-11,-4
3320,-2,-4,36,-12,-1,32,-10,-5
3321,-1,-5,36,-12,-1,31,-9,-5
3322,0,-6,38,-11,-1,31,-8,-5
3323,0,-7,39,-11,-1,31,-7,-5
3324,0,-6,38,-11,-1,30,-7,-5
3325,1,-6,35,-10,-1,32,-7,-4
3326,1,-5,32,-10,-2,38,-7,-4
3327,1,-4,29,-9,-2,41,-7,-4
3328,1,-3,28,-9,-2,38,-7,-4
3329,1,-3,27,-8,-3,31,-7,-4
3330,1,-3,27,-8,-3,26,-6,-4
3331,1,-3,26,-7,-3,28,-6,-4
3332,2,-3,24,-6,-4,32,-5,-4
3333,2,-3,23,-6,-4,33,-4,-4
3334,2,-3,23,-5,-4,33,-3,-3
3335,2,-4,24,-4,-3,31,-2,-3
3336,2,-4,25,-3,-3,31,-2,-3
3337,3,-3,24,-2,-3,31,-1,-3
3338,3,-3,23,-1,-3,28,0,-3
3339,3,-2,21,1,-3,24,0,-2
3340,3,-1,20,2,-3,19,0,-1
3341,3,0,19,2,-3,17,0,0
3342,3,1,19,2,-3,18,1,0
3343,2,1,16,2,-2,21,1,0
3344,1,1,11,2,-2,21,1,-1
3345,1,0,6,1,-3,19,2,-2
3346,1,-1,4,1,-3,17,2,-3
3347,1,-2,2,1,-3,17,2,-3
3348,2,-3,-1,1,-4,18,1,-4
3349,2,-3,-5,1,-4,18,1,-3
3350,2,-2,-10,1,-5,13,0,-3
3351,2,-1,-13,2,-5,9,0,-2
3352,3,0,-16,2,-4,7,0,-1
3353,2,1,-18,2,-4,6,0,0
3354,2,1,-20,2,-3,5,1,0
3355,1,2,-24,2,-3,3,2,0
3356,1,2,-29,2,-2,3,3,-1
3357,2,1,-34,2,-2,6,3,-1
3358,2,0,-38,3,-2,8,4,-1
3359,3,-1,-42,4,-1,6,4,-1
3360,4,-2,-46,4,0,0,4,-1
3361,4,-2,-47,5,1,-5,4,0
3362,4,-1,-48,6,1,-6,5,0
3363,4,-1,-50,7,1,-5,6,1
3364,5,-1,-53,7,0,-3,6,1
3365,6,-1,-56,7,0,-4,7,2
3366,7,-1,-57,7,0,-6,7,2
3367,7,-1,-56,7,0,-7,7,2
3368,8,-1,-56,7,0,-5,6,2
3369,8,-2,-57,7,0,-2,6,2
3370,7,-2,-58,6,0,-2,5,2
3371,5,-2,-59,5,-1,-5,4,1
3372,4,-2,-58,4,-2,-6,3,-1
3373,2,-2,-57,3,-2,-6,3,-1
3374,1,-1,-55,2,-3,-5,3,-1
3375,2,-2,-54,2,-3,-7,3,-1
3376,2,-2,-52,2,-4,-9,3,-1
3377,3,-3,-49,1,-4,-10,2,-1
3378,2,-4,-44,0,-4,-7,1,-1
3379,2,-5,-41,-1,-4,-1,0,-1
3380,1,-4,-38,-2,-3,5,-1,-1
3381,0,-4,-36,-2,-2,6,-2,-2
3382,0,-4,-33,-2,-2,5,-2,-2
3383,-1,-4,-30,-2,-2,4,-2,-2
3384,-1,-3,-28,-2,-2,5,-2,-3
3385,-2,-3,-28,-2,-2,6,-2,-3
3386,-1,-2,-29,-2,-3,5,-1,-3
3387,-1,-2,-27,-1,-3,5,-1,-4
3388,-1,-2,-24,-1,-2,6,-1,-3
3389,0,-1,-20,0,-2,9,-1,-3
3390,1,-1,-18,0,-2,11,-1,-2
3391,1,0,-20,0,-1,7,-1,-2
3392,1,1,-22,1,-1,1,-1,-2
3393,0,1,-23,2,-1,-3,1,-1
3394,0,2,-19,2,-1,-1,1,-2
3395,-1,2,-14,3,-2,5,2,-2
3396,-2,2,-9,3,-2,8,2,-3
3397,-3,2,-5,3,-2,9,2,-3
3398,-4,2,-1,3,-2,10,2,-2
3399,-4,2,1,3,-1,12,2,-2
3400,-4,3,1,2,-1,15,2,-1
3401,-3,3,-1,2,-1,17,2,0
3402,-3,3,-2,2,0,18,1,1
3403,-3,2,-1,1,0,19,0,1
3404,-3,2,0,1,1,17,-1,1
3405,-4,2,0,0,1,16,-2,2
3406,-4,2,-1,1,2,16,-2,2
3407,-3,3,-2,1,3,17,-1,3
3408,-2,3,-3,2,3,18,-1,4
3409,-2,4,-3,3,4,19,0,5
3410,-1,4,-4,4,4,19,1,5
3411,-1,4,-4,4,4,18,1,5
3412,-1,3,-4,3,3,17,1,4
3413,-2,3,-3,3,2,15,1,3
3414,-3,2,-2,2,2,13,0,2
3415,-3,2,-1,2,1,11,0,2
3416,-4,2,0,2,1,12,-1,1
3417,-4,2,2,2,1,15,-1,1
3418,-4,3,4,3,1,21,-2,1
3419,-3,3,7,4,0,26,-2,1
3420,-3,3,8,4,-1,28,-1,1
3421,-3,4,8,5,-1,28,-1,1
3422,-4,5,7,6,-1,29,0,1
3423,-5,6,7,6,-1,31,0,1
3424,-5,6,7,6,0,33,0,2
3425,-6,7,7,6,0,34,1,2
3426,-5,6,7,5,1,36,1,2
3427,-4,6,9,4,1,37,1,2
3428,-4,5,10,2,1,39,1,2
3429,-4,4,11,0,1,40,0,1
3430,-5,4,11,-1,1,42,-1,1
3431,-6,4,11,-2,1,43,-2,0
3432,-7,4,12,-3,0,41,-3,-1
3433,-8,4,17,-4,1,38,-4,-1
3434,-8,3,20,-4,1,37,-6,-2
3435,-8,2,21,-5,1,41,-6,-2
3436,-7,1,19,-5,0,46,-7,-3
3437,-6,-1,15,-6,-1,50,-7,-3
3438,-6,-2,13,-6,-2,53,-7,-3
3439,-5,-2,14,-6,-3,53,-7,-3
3440,-5,-2,16,-5,-4,51,-7,-3
3441,-4,-1,17,-5,-4,51,-6,-3
3442,-3,-1,17,-5,-4,52,-5,-3
3443,-2,-1,16,-5,-3,55,-4,-3
3444,-2,-1,16,-5,-3,56,-3,-3
3445,-1,-1,17,-6,-3,55,-3,-3
3446,-1,-2,16,-6,-3,51,-4,-3
3447,-1,-2,15,-7,-2,44,-4,-2
3448,-2,-1,13,-7,-2,39,-4,-2
3449,-2,-1,14,-7,-2,36,-4,-2
3450,-3,-1,17,-7,-3,35,-4,-2
3451,-4,-2,20,-7,-3,35,-4,-3
3452,-4,-2,21,-6,-3,32,-5,-3
3453,-4,-3,22,-6,-3,29,-5,-2
3454,-4,-3,21,-5,-2,26,-5,-2
3455,-4,-3,21,-4,-1,23,-5,-1
3456,-4,-2,21,-3,-1,19,-5,0
3457,-4,-2,20,-2,-1,16,-5,0
3458,-3,-2,18,-2,-2,15,-4,0
3459,-2,-1,17,-2,-3,14,-4,-1
3460,-1,-1,16,-3,-3,11,-4,-1
3461,-1,0,14,-3,-2,7,-3,-1
3462,-1,1,11,-3,-2,4,-3,-1
3463,-2,2,8,-3,-2,4,-3,-1
3464,-2,3,5,-2,-2,5,-2,0
3465,-3,4,2,-1,-2,5,-1,0
3466,-3,5,0,0,-2,3,0,1
3467,-3,6,-1,1,-2,0,1,1
3468,-2,7,1,2,-2,1,2,1
3469,-2,8,5,3,-2,7,4,1
3470,-1,9,11,4,-2,17,5,1
3471,-2,9,17,5,-2,27,5,1
3472,-2,9,23,5,-2,36,4,1
3473,-3,8,29,5,-2,44,3,1
3474,-4,8,34,4,-2,53,2,1
3475,-4,8,39,3,-2,60,1,1
3476,-5,8,41,3,-2,62,1,1
3477,-5,9,40,3,-1,56,1,1
3478,-5,9,34,3,-1,45,1,1
3479,-4,9,23,3,-1,32,1,1
3480,-4,9,11,2,0,16,1,2
3481,-5,8,0,1,0,-4,0,1
3482,-5,8,-9,1,1,-27,0,1
3483,-5,9,-20,0,1,-50,-1,2
3484,-5,9,-32,0,2,-72,-1,2
3485,-4,10,-48,0,3,-97,-2,3
3486,-3,10,-69,0,4,-129,-2,4
3487,-2,10,-94,0,4,-169,-2,4
3488,-1,10,-116,1,5,-206,-2,5
3489,0,10,-126,1,5,-225,-2,5
3490,1,11,-125,1,5,-221,-1,5
3491,2,11,-115,0,5,-199,-1,5
3492,3,12,-100,0,4,-167,0,5
3493,3,12,-82,0,4,-133,1,5
3494,3,12,-65,1,3,-99,2,6
3495,3,12,-52,1,3,-68,3,6
3496,3,12,-44,2,2,-42,3,6
3497,3,11,-39,2,2,-21,3,6
3498,3,10,-38,2,2,-7,2,7
3499,2,9,-41,2,2,-2,1,7
3500,1,8,-47,3,2,-3,0,6
3501,0,7,-56,4,2,-9,0,6
3502,-1,6,-64,4,2,-16,0,5
3503,-1,5,-69,3,1,-23,-1,4
3504,-2,5,-69,2,0,-27,-2,3
3505,-3,4,-66,0,0,-23,-3,3
3506,-3,5,-62,-1,0,-16,-3,3
3507,-3,5,-60,-2,1,-9,-2,3
3508,-2,6,-59,-2,3,-6,-2,3
3509,-1,6,-57,-2,3,-2,-1,4
3510,-1,7,-54,-3,3,4,0,4
3511,-2,7,-51,-2,2,12,-1,4
3512,-3,8,-49,-2,1,19,-1,4
3513,-3,8,-47,-1,1,23,-2,5
3514,-3,9,-45,-1,1,25,-2,5
3515,-3,9,-41,0,1,27,-2,5
3516,-4,8,-38,-1,2,32,-2,5
3517,-4,7,-37,-1,2,34,-2,5
3518,-3,7,-38,0,1,32,-1,5
3519,-2,7,-41,1,0,21,1,5
3520,0,7,-43,2,-1,9,3,5
3521,1,6,-42,4,-2,1,5,4
3522,3,6,-40,4,-2,-5,7,3
3523,4,4,-40,4,-2,-9,8,2
3524,4,3,-38,4,-2,-16,8,1
3525,5,2,-33,5,-1,-22,9,1
3526,7,0,-27,6,-2,-26,9,1
3527,10,-1,-24,8,-2,-26,11,1
3528,13,-1,-25,10,-2,-23,12,2
3529,16,-1,-27,12,-2,-21,14,2
3530,18,0,-28,13,-2,-20,17,2
3531,19,1,-27,15,-1,-20,19,2
3532,19,3,-25,16,0,-18,21,3
3533,20,4,-24,17,1,-14,23,4
3534,20,5,-29,19,2,-9,24,5
3535,22,6,-36,21,3,-3,26,6
3536,25,6,-44,23,3,8,28,7
3537,26,7,-50,24,3,19,29,8
3538,26,6,-53,25,3,24,29,8
3539,26,6,-56,25,3,23,29,8
3540,25,6,-60,25,4,20,29,8
3541,24,6,-62,25,4,19,28,9
3542,23,5,-64,24,3,20,28,9
3543,22,4,-65,23,3,20,26,8
3544,21,2,-66,22,2,19,24,7
3545,19,-1,-68,19,0,17,21,6
3546,16,-3,-71,17,-1,14,18,4
3547,13,-4,-74,14,-1,12,16,3
3548,10,-4,-77,12,-1,10,13,2
3549,7,-3,-79,11,-1,9,12,2
3550,5,-3,-79,10,-1,8,10,1
3551,3,-3,-77,9,-1,8,9,1
3552,2,-4,-74,8,-1,8,7,-1
3553,2,-5,-71,7,-2,9,6,-1
3554,2,-5,-69,5,-2,12,4,-2
3555,1,-5,-65,3,-3,17,3,-2
3556,0,-4,-61,2,-3,21,1,-2
3557,-1,-3,-58,0,-3,23,1,-2
3558,-2,-1,-58,0,-3,23,1,-2
3559,-1,0,-59,-1,-3,22,2,-2
3560,-1,0,-57,-1,-3,20,2,-1
3561,0,0,-52,-1,-3,19,2,0
3562,0,-1,-48,-1,-2,17,1,0
3563,1,-2,-47,-1,-2,15,1,0
3564,1,-3,-47,-2,-2,13,0,0
3565,1,-4,-48,-2,-3,9,0,-1
3566,0,-4,-47,-3,-4,7,-1,-3
3567,-1,-4,-45,-3,-5,6,-1,-4
3568,-1,-4,-40,-3,-5,6,-2,-4
3569,-2,-3,-34,-3,-5,7,-2,-4
3570,-3,-2,-25,-3,-5,6,-2,-4
3571,-5,-2,-13,-3,-4,2,-1,-5
3572,-6,-3,1,-4,-4,-5,-2,-5
3573,-7,-4,13,-5,-5,-8,-2,-6
3574,-8,-7,20,-6,-5,-7,-3,-7
3575,-8,-9,23,-7,-6,-10,-4,-9
3576,-8,-11,28,-8,-7,-18,-5,-9
3577,-9,-13,35,-9,-6,-28,-6,-10
3578,-9,-14,40,-9,-6,-36,-6,-10
3579,-9,-14,42,-10,-5,-41,-7,-10
3580,-9,-14,41,-10,-5,-42,-7,-10
3581,-8,-14,40,-11,-5,-41,-7,-9
3582,-7,-14,40,-11,-5,-42,-7,-9
3583,-6,-14,41,-10,-4,-44,-7,-8
3584,-4,-14,41,-10,-4,-47,-6,-7
3585,-3,-13,41,-9,-4,-47,-4,-7
3586,-3,-13,42,-8,-4,-42,-2,-7
3587,-2,-11,43,-7,-4,-36,-1,-6
3588,-2,-10,46,-5,-3,-32,0,-5
3589,-2,-8,50,-4,-3,-29,0,-4
3590,-3,-6,51,-4,-2,-27,0,-2
3591,-4,-5,51,-3,-1,-22,-1,-1
3592,-5,-4,50,-3,-1,-15,-1,-1
3593,-6,-3,50,-3,-1,-12,-2,-1
3594,-6,-4,51,-3,-2,-13,-3,-2
3595,-7,-5,50,-3,-3,-16,-4,-3
3596,-6,-5,49,-4,-4,-14,-4,-5
3597,-6,-6,48,-4,-4,-8,-4,-6
3598,-6,-7,49,-5,-5,-2,-4,-7
3599,-6,-8,50,-6,-5,2,-4,-7
3600,-7,-8,51,-7,-5,4,-4,-8
3601,-7,-8,50,-7,-5,8,-4,-8
3602,-8,-8,48,-7,-5,12,-4,-7
3603,-8,-8,41,-7,-5,11,-4,-7
3604,-8,-7,33,-7,-5,3,-4,-7
3605,-7,-7,24,-7,-4,-9,-5,-6
3606,-6,-7,14,-7,-4,-17,-5,-6
3607,-6,-7,6,-8,-4,-16,-5,-5
3608,-5,-8,-1,-8,-4,-11,-6,-5
3609,-5,-9,-5,-9,-3,-8,-7,-5
3610,-4,-9,-9,-9,-3,-8,-8,-5
3611,-4,-9,-15,-8,-2,-10,-8,-4
3612,-4,-9,-21,-8,-1,-9,-8,-3
3613,-4,-8,-25,-8,1,-6,-9,-2
3614,-4,-7,-27,-8,1,-3,-9,-1
3615,-4,-7,-28,-7,2,-2,-9,-1
3616,-4,-6,-30,-6,2,-3,-9,0
3617,-4,-5,-32,-4,2,-2,-8,1
3618,-4,-3,-32,-3,3,1,-7,1
3619,-4,-2,-32,-2,4,4,-6,2
3620,-4,-1,-31,-2,4,3,-6,2
3621,-4,-2,-29,-3,4,-1,-7,1
3622,-4,-3,-26,-5,3,-6,-8,0
3623,-5,-4,-22,-7,4,-12,-10,-1
3624,-5,-5,-20,-9,4,-14,-11,-1
3625,-6,-6,-19,-10,4,-12,-12,-2
3626,-8,-6,-20,-11,3,-9,-14,-2
3627,-8,-6,-19,-11,2,-11,-15,-3
3628,-9,-6,-17,-11,1,-18,-16,-3
3629,-9,-5,-16,-10,0,-24,-16,-3
3630,-9,-5,-17,-10,0,-29,-17,-3
3631,-10,-4,-17,-9,-1,-34,-17,-3
3632,-9,-3,-13,-8,-1,-43,-16,-2
3633,-9,-2,-5,-8,-1,-54,-16,-2
3634,-8,-2,4,-8,-1,-63,-14,-2
3635,-7,-1,12,-7,-1,-62,-13,-2
3636,-5,-2,18,-7,-1,-54,-12,-2
3637,-4,-3,23,-7,-1,-47,-10,-2
3638,-4,-4,26,-6,0,-44,-9,-2
3639,-3,-5,27,-6,0,-44,-8,-2
3640,-3,-5,30,-6,0,-42,-7,-3
3641,-3,-4,33,-6,0,-36,-5,-3
3642,-3,-3,37,-6,-1,-30,-4,-3
3643,-3,-3,40,-5,-1,-25,-4,-2
3644,-2,-3,43,-4,-1,-25,-3,-2
3645,0,-4,46,-3,-1,-27,-3,-2
3646,2,-5,48,-3,-1,-27,-2,-1
3647,3,-6,49,-3,1,-22,-2,-1
3648,4,-6,48,-3,1,-16,-1,-1
3649,4,-7,47,-2,1,-14,-1,-1
3650,4,-7,46,-2,1,-18,0,-2
3651,4,-7,46,-2,1,-19,-1,-2
3652,3,-7,47,-3,1,-14,-2,-1
3653,2,-8,47,-4,2,-5,-2,-1
3654,2,-9,45,-4,2,1,-3,-1
3655,2,-9,45,-4,2,1,-3,0
3656,2,-9,45,-4,2,1,-3,0
3657,2,-8,45,-3,1,4,-2,1
3658,3,-7,42,-3,1,11,-2,1
3659,4,-5,39,-3,1,15,-2,2
3660,4,-4,36,-3,1,11,-2,2
3661,4,-3,33,-3,1,3,-3,2
3662,4,-3,32,-2,1,-1,-3,2
3663,4,-3,29,-2,0,1,-4,1
3664,3,-4,26,-2,0,5,-4,1
3665,4,-4,22,-2,1,4,-4,1
3666,4,-3,18,-2,2,-3,-4,2
3667,4,-2,16,-2,3,-10,-3,3
3668,5,-1,14,-2,5,-11,-3,4
3669,5,1,11,-2,6,-8,-2,6
3670,5,1,5,-3,7,-8,-3,7
3671,5,1,-1,-3,7,-13,-3,8
3672,6,0,-6,-2,6,-21,-3,9
3673,7,0,-7,-2,6,-23,-2,9
3674,8,0,-6,-1,5,-22,-1,9
3675,8,0,-6,0,5,-22,1,9
3676,8,0,-6,0,5,-25,2,8
3677,8,-1,-6,0,5,-30,2,7
3678,8,-2,-2,0,5,-31,1,6
3679,7,-3,3,-1,6,-30,1,5
3680,7,-3,6,-1,6,-31,0,4
3681,7,-3,8,-1,7,-35,0,5
3682,7,-2,8,-1,7,-39,0,5
3683,6,-1,11,-1,8,-38,0,6
3684,5,0,15,-1,8,-35,-1,7
3685,4,1,17,-2,7,-32,-2,7
3686,3,1,17,-3,7,-32,-2,7
3687,2,2,16,-3,6,-33,-3,7
3688,1,1,18,-2,5,-31,-3,7
3689,2,1,20,-2,5,-27,-3,6
3690,3,-1,20,-1,4,-26,-2,6
3691,4,-2,17,-1,4,-30,-2,5
3692,4,-3,13,-1,4,-37,-2,4
3693,5,-3,11,-1,4,-43,-1,4
3694,4,-2,12,-1,5,-43,-1,3
3695,4,-1,11,0,5,-40,0,4
3696,5,1,8,1,5,-39,1,5
3697,5,1,4,1,5,-41,1,5
3698,6,1,2,2,5,-43,2,5
3699,7,1,3,3,5,-40,2,5
3700,8,1,6,4,4,-33,3,5
3701,8,1,7,5,3,-28,3,5
3702,8,1,5,5,2,-28,3,4
3703,8,1,3,5,1,-31,3,4
3704,7,1,5,5,1,-30,2,4
3705,6,1,8,4,1,-24,2,3
3706,5,1,10,4,1,-19,1,3
3707,4,2,10,4,1,-18,1,3
3708,3,2,8,4,1,-20,1,3
3709,2,2,8,4,1,-19,0,3
3710,2,1,13,4,2,-11,0,3
3711,3,1,19,4,2,-3,1,3
3712,3,0,22,3,2,1,2,3
3713,3,0,22,2,2,-1,2,3
3714,3,1,23,1,3,-1,3,3
3715,2,1,26,1,3,4,3,3
3716,1,2,29,0,3,10,2,3
3717,1,2,31,0,4,14,2,4
3718,1,2,30,1,4,15,2,4
3719,2,2,30,1,4,15,2,4
3720,2,1,30,1,3,19,2,4
3721,2,1,32,1,3,24,3,4
3722,3,1,33,1,3,26,4,4
3723,3,1,32,1,2,24,4,3
3724,4,2,31,2,2,21,5,3
3725,5,2,30,2,2,20,6,3
3726,5,1,29,3,2,19,6,2
3727,5,0,28,4,3,18,6,2
3728,5,-1,28,5,3,16,6,1
3729,5,-2,29,5,3,14,5,1
3730,6,-2,31,6,3,15,4,1
3731,5,-2,34,6,3,18,3,1
3732,5,-2,36,6,3,20,3,1
3733,4,-1,35,5,4,19,2,2
3734,2,0,32,5,4,15,2,2
3735,1,0,28,5,4,13,2,2
3736,0,0,27,5,4,13,2,1
3737,-1,-1,25,5,4,15,2,1
3738,-1,-1,21,5,3,14,2,0
3739,0,-2,14,5,3,12,2,0
3740,1,-3,9,5,3,9,1,0
3741,1,-3,6,5,3,9,0,0
3742,1,-3,5,4,3,10,0,0
3743,1,-2,5,4,2,11,-1,1
3744,0,-2,7,3,2,11,-1,1
3745,0,-2,8,2,1,13,-1,1
3746,-1,-3,9,2,0,16,-1,1
3747,-1,-4,7,2,-2,19,-1,0
3748,0,-5,3,2,-3,19,-1,0
3749,0,-6,-4,2,-4,18,-1,-1
3750,1,-7,-11,1,-4,17,-1,-2
3751,0,-6,-16,0,-5,19,-1,-2
3752,0,-6,-19,0,-5,21,0,-3
3753,-1,-5,-21,0,-4,22,0,-3
3754,-2,-4,-24,1,-4,18,0,-3
3755,-2,-3,-26,1,-5,14,0,-3
3756,-3,-2,-25,2,-4,15,1,-3
3757,-3,-1,-24,3,-4,17,1,-2
3758,-3,0,-26,3,-3,16,1,-2
3759,-3,1,-31,2,-2,11,1,-2
3760,-3,0,-35,2,-1,5,1,-1
3761,-2,-1,-37,1,-1,1,1,-1
3762,-2,-1,-37,0,0,-2,0,-1
3763,-2,-1,-36,-1,0,-5,-1,0
3764,-3,0,-35,-1,1,-11,-1,0
3765,-3,1,-34,-1,1,-18,-1,1
3766,-3,2,-36,-1,1,-27,-1,1
3767,-3,2,-39,-1,1,-36,-1,1
3768,-2,2,-43,-1,1,-45,-1,1
3769,-2,2,-48,-1,2,-56,-1,1
3770,-2,2,-51,-1,2,-67,-2,0
3771,-2,1,-52,-2,3,-79,-2,-1
3772,-2,1,-52,-1,3,-90,-3,-1
3773,-2,0,-51,-1,3,-98,-4,-2
3774,-2,0,-48,-1,2,-103,-4,-2
3775,-3,1,-45,0,1,-108,-5,-2
3776,-3,1,-41,1,1,-111,-5,-3
3777,-3,2,-36,2,1,-115,-4,-3
3778,-2,1,-31,3,1,-117,-4,-3
3779,-2,1,-27,4,1,-121,-3,-3
3780,-2,0,-23,4,2,-124,-3,-2
3781,-2,1,-19,4,2,-126,-4,-1
3782,-2,1,-13,4,2,-126,-5,0
3783,-3,2,-6,2,2,-122,-6,1
3784,-3,2,1,0,1,-115,-7,0
3785,-4,1,7,-2,-1,-109,-8,-1
3786,-3,0,10,-3,-2,-104,-8,-1
3787,-2,-2,12,-4,-3,-100,-7,-2
3788,1,-4,14,-4,-3,-98,-6,-3
3789,3,-6,17,-3,-2,-97,-4,-3
3790,6,-8,21,-2,-2,-97,-2,-3
3791,8,-9,25,-1,-1,-96,0,-3
3792,9,-9,30,-1,-1,-94,2,-3
3793,9,-9,35,-1,0,-88,2,-2
3794,8,-8,38,-2,-1,-79,3,-3
3795,8,-8,40,-3,-1,-71,2,-3
3796,7,-9,41,-4,-2,-66,1,-4
3797,5,-10,43,-5,-2,-64,-1,-5
3798,3,-11,45,-7,-3,-62,-4,-6
3799,2,-12,47,-9,-3,-59,-6,-6
3800,1,-13,48,-10,-3,-56,-7,-7
3801,0,-14,49,-12,-4,-52,-8,-7
3802,1,-14,52,-12,-4,-48,-8,-7
3803,2,-13,55,-11,-4,-43,-7,-7
3804,3,-13,58,-11,-4,-39,-6,-7
3805,5,-12,58,-10,-4,-36,-5,-6
3806,6,-12,56,-9,-4,-32,-4,-6
3807,6,-11,54,-9,-4,-28,-3,-5
3808,6,-10,53,-8,-4,-26,-2,-4
3809,6,-9,51,-7,-3,-26,-1,-2
3810,6,-8,50,-5,-3,-26,0,0
3811,7,-6,49,-3,-2,-24,1,4
3812,8,-5,48,-1,-1,-21,2,6
3813,8,-4,47,0,1,-20,2,8
3814,8,-3,45,0,2,-20,3,10
3815,7,-3,43,0,2,-20,4,10
3816,6,-3,42,0,1,-19,4,10
3817,7,-3,41,1,1,-16,4,9
3818,7,-3,40,2,0,-16,5,8
3819,8,-3,38,3,-1,-16,6,7
3820,8,-3,35,3,-2,-15,7,6
3821,8,-3,33,4,-2,-12,8,5
3822,8,-3,30,5,-2,-7,9,5
3823,9,-3,26,6,-1,-3,10,6
3824,9,-3,23,7,0,-1,9,7
3825,9,-3,21,7,1,2,8,7
3826,9,-2,21,6,2,6,7,8
3827,9,-2,22,5,2,9,6,8
3828,9,-1,21,4,1,11,6,7
3829,9,-1,18,4,0,11,6,7
3830,9,-1,12,3,-1,10,7,6
3831,9,-1,8,3,-2,10,7,5
3832,9,0,6,3,-2,13,7,4
3833,9,0,4,3,-2,17,8,4
3834,9,1,3,3,-2,21,8,4
3835,9,2,1,4,-1,24,8,4
3836,8,4,0,4,1,25,8,5
3837,8,5,0,5,1,27,8,7
3838,7,6,1,5,1,31,8,7
3839,6,7,4,5,0,36,6,8
3840,5,5,6,3,-2,40,4,8
3841,4,4,7,1,-3,43,1,7
3842,2,2,7,0,-4,45,-1,6
3843,2,2,9,-1,-4,49,-2,5
3844,1,1,12,-2,-4,55,-1,5
3845,2,2,17,-2,-3,62,1,5
3846,2,2,18,-1,-2,66,2,5
3847,3,2,17,0,-1,65,3,6
3848,3,3,15,1,-1,63,3,6
3849,2,4,15,1,0,62,3,7
3850,2,5,17,2,1,64,4,8
3851,2,6,20,2,1,68,4,8
3852,2,6,22,2,2,72,4,8
3853,2,6,21,2,2,75,4,8
3854,2,5,20,1,2,79,4,8
3855,2,5,19,0,1,83,4,8
3856,1,5,19,-2,0,87,3,7
3857,-1,5,18,-4,-1,89,2,6
3858,-2,5,15,-6,-2,87,1,4
3859,-3,4,13,-6,-3,85,-1,3
3860,-4,2,15,-7,-3,85,-2,1
3861,-4,1,19,-7,-3,86,-3,0
3862,-4,-2,19,-6,-3,80,-3,-1
3863,-4,-4,12,-6,-2,66,-4,-2
3864,-5,-5,3,-6,-1,47,-4,-3
3865,-6,-5,-1,-6,0,35,-5,-3
3866,-6,-5,-1,-6,1,30,-5,-3
3867,-6,-5,-1,-5,2,28,-4,-2
3868,-5,-4,-6,-4,3,19,-4,-1
3869,-4,-2,-16,-2,3,5,-3,-1
3870,-2,-1,-25,-1,3,-7,-3,0
3871,-1,1,-28,1,2,-12,-2,0
3872,-1,2,-28,2,1,-10,-1,1
3873,-1,3,-27,3,1,-7,-1,0
3874,-3,3,-28,3,1,-6,-2,0
3875,-5,2,-25,2,0,-2,-3,-2
3876,-7,1,-14,0,-1,13,-4,-3
3877,-9,-1,2,-1,-2,36,-5,-5
3878,-10,-3,13,-3,-1,56,-6,-6
3879,-10,-4,16,-4,-1,65,-7,-6
3880,-10,-4,16,-4,0,70,-8,-6
3881,-10,-4,23,-5,0,84,-8,-5
3882,-10,-3,36,-6,0,109,-8,-5
3883,-9,-3,48,-7,-1,132,-8,-4
3884,-7,-2,50,-8,-1,140,-8,-4
3885,-5,-2,39,-8,0,131,-8,-3
3886,-4,-2,24,-7,0,113,-8,-2
3887,-2,-2,13,-6,-1,97,-7,-2
3888,-2,-2,8,-5,-1,88,-6,-2
3889,-2,-2,1,-4,-1,78,-6,-2
3890,-3,-1,-13,-4,-1,58,-5,-2
3891,-4,-1,-32,-3,0,30,-5,-3
3892,-5,-1,-48,-3,1,7,-5,-3
3893,-5,-1,-55,-3,1,-1,-4,-3
3894,-5,-2,-61,-2,1,-3,-4,-3
3895,-4,-3,-72,-2,1,-13,-4,-3
3896,-3,-3,-86,-2,1,-34,-4,-3
3897,-2,-3,-93,-2,1,-48,-4,-2
3898,-2,-2,-83,-1,1,-41,-3,-1
3899,-2,0,-64,0,1,-18,-2,0
3900,-3,1,-49,1,0,5,-1,1
3901,-4,2,-42,2,-1,18,0,1
3902,-5,2,-36,2,-1,28,0,1
3903,-6,1,-20,2,-2,51,0,0
3904,-7,1,-1,1,-2,82,0,-2
3905,-7,-1,6,0,-3,101,0,-3
3906,-6,-2,-9,-1,-3,89,-1,-5
3907,-5,-3,-37,-2,-4,53,-1,-6
3908,-3,-4,-60,-3,-4,19,-2,-7
3909,-3,-5,-70,-4,-5,3,-2,-8
3910,-3,-7,-73,-5,-5,-3,-3,-8
3911,-4,-8,-81,-5,-5,-13,-4,-9
3912,-4,-9,-90,-5,-4,-27,-6,-9
3913,-5,-9,-94,-6,-3,-36,-7,-10
3914,-5,-8,-92,-5,-2,-39,-7,-9
3915,-6,-7,-94,-5,-1,-45,-7,-9
3916,-5,-6,-108,-4,1,-69,-7,-8
3917,-5,-5,-132,-3,1,-110,-7,-7
3918,-4,-4,-157,-1,2,-155,-7,-6
3919,-3,-3,-174,0,3,-190,-7,-5
3920,-3,-1,-182,1,3,-210,-8,-4
3921,-3,0,-182,2,2,-216,-8,-4
3922,-4,1,-174,2,2,-210,-8,-4
3923,-4,1,-156,2,1,-189,-7,-4
3924,-5,1,-125,2,0,-149,-7,-4
3925,-5,2,-87,2,0,-95,-6,-4
3926,-5,2,-51,1,0,-40,-5,-4
3927,-5,1,-30,1,0,-3,-5,-3
3928,-5,1,-26,1,1,9,-5,-3
3929,-4,0,-33,1,1,3,-5,-3
3930,-4,-1,-40,1,0,-4,-5,-2
3931,-3,-1,-42,1,0,-7,-5,-2
3932,-2,1,-44,1,0,-11,-5,-1
3933,-2,2,-51,2,0,-23,-5,0
3934,-2,4,-59,4,1,-36,-4,1
3935,-1,5,-59,5,1,-38,-2,1
3936,-1,6,-50,6,1,-27,0,2
3937,1,6,-41,7,1,-14,2,2
3938,1,5,-39,7,1,-11,3,2
3939,1,5,-41,7,2,-17,3,2
3940,1,4,-39,6,2,-19,3,1
3941,0,3,-31,5,2,-12,3,1
3942,1,2,-24,4,2,-5,2,0
3943,1,1,-24,3,1,-5,1,-1
3944,2,1,-29,3,0,-13,1,-1
3945,3,1,-31,4,0,-18,1,-1
3946,4,1,-29,5,-1,-17,2,0
3947,4,2,-29,6,-1,-16,3,0
3948,5,1,-34,6,-1,-22,3,1
3949,5,0,-39,6,0,-32,4,1
3950,6,-1,-39,5,1,-34,4,1
3951,6,-1,-32,5,1,-24,5,1
3952,5,0,-26,5,1,-11,5,1
3953,4,1,-27,4,-1,-4,5,1
3954,3,1,-33,4,-2,-5,5,1
3955,3,1,-37,4,-2,-5,6,1
3956,4,1,-39,4,-3,-2,6,1
3957,5,-1,-42,4,-3,3,7,0
3958,6,-1,-48,4,-2,4,8,0
3959,6,-1,-59,4,-2,3,9,0
3960,7,-1,-73,4,-1,-1,10,-1
3961,7,-2,-88,4,-1,-3,10,-1
3962,6,-2,-100,4,-1,-4,10,-2
3963,5,-2,-111,4,-1,-3,8,-3
3964,4,-2,-122,4,-2,-1,7,-3
3965,3,-2,-134,3,-2,1,6,-3
3966,2,-2,-144,3,-3,1,5,-3
3967,2,-2,-151,2,-3,1,5,-3
3968,0,-2,-154,1,-3,1,4,-4
3969,-1,-2,-156,0,-3,1,4,-4
3970,-2,-2,-160,-1,-4,2,3,-5
3971,-3,-3,-166,-2,-4,5,2,-5
3972,-4,-2,-167,-3,-5,13,2,-6
3973,-4,-2,-163,-3,-5,25,3,-5
3974,-4,-2,-157,-3,-6,35,3,-5
3975,-4,-2,-152,-3,-7,40,3,-5
3976,-3,-3,-149,-3,-7,41,4,-5
3977,-2,-4,-146,-2,-8,44,4,-5
3978,-2,-4,-142,-3,-8,48,3,-6
3979,-1,-5,-138,-3,-8,49,3,-6
3980,-1,-4,-132,-4,-8,47,3,-6
3981,-2,-3,-126,-4,-7,45,2,-6
3982,-2,-1,-117,-5,-7,48,2,-5
3983,-2,0,-107,-4,-7,54,1,-4
3984,-3,1,-97,-4,-6,56,1,-3
3985,-3,2,-86,-3,-6,52,1,-3
3986,-3,2,-73,-3,-5,43,1,-2
3987,-2,2,-60,-2,-4,36,1,-2
3988,-2,2,-48,-2,-4,34,1,-1
3989,-2,2,-39,-2,-3,32,1,-1
3990,-3,2,-32,-2,-3,27,1,-1
3991,-3,2,-27,-1,-2,19,1,-1
3992,-3,2,-25,0,-2,11,1,-1
3993,-3,2,-24,0,-1,10,1,0
3994,-3,2,-22,0,-1,13,1,0
3995,-2,1,-19,-1,-1,17,1,0
3996,-2,-1,-17,-2,0,18,0,0
3997,-2,-1,-14,-3,0,16,0,-1
3998,-3,-2,-10,-4,0,15,-1,-1
3999,-3,-3,-6,-4,1,15,-1,-1
4000,-3,-3,-4,-3,2,15,-1,-1
4001,-3,-3,-4,-3,2,14,-1,0
4002,-3,-2,-4,-3,2,12,-1,0
4003,-2,-1,-3,-2,3,11,-1,1
4004,-2,1,-3,-2,3,11,-1,1
4005,-1,2,-2,-2,4,13,-1,1
4006,0,2,-2,-1,4,16,1,1
4007,1,2,-4,-1,4,16,1,2
4008,1,2,-5,-1,4,14,2,2
4009,1,1,-6,-1,4,13,2,3
4010,1,1,-7,-1,3,15,3,3
4011,2,1,-7,-1,3,19,3,2
4012,2,1,-9,-1,2,22,3,2
4013,2,2,-11,-1,2,20,3,2
4014,1,2,-13,0,2,18,3,2
4015,1,3,-16,0,2,16,3,2
4016,0,3,-17,1,3,17,4,2
4017,-1,3,-19,1,3,19,4,2
4018,-1,3,-20,1,3,19,4,1
4019,-2,3,-20,1,3,18,4,1
4020,-1,3,-18,1,2,20,4,1
4021,-1,3,-17,0,2,25,4,1
4022,0,3,-15,-1,1,32,3,1
4023,1,3,-12,-1,1,36,3,2
4024,2,3,-9,0,0,37,4,2
4025,2,3,-6,0,-1,35,4,2
4026,2,2,0,1,-2,34,5,2
4027,2,2,7,1,-2,33,5,2
4028,2,2,14,1,-2,34,5,1
4029,2,2,19,1,-2,35,5,1
4030,3,2,20,1,-1,33,6,2
4031,3,2,21,2,-1,28,6,2
4032,4,2,21,2,0,23,6,2
4033,4,2,22,3,-1,19,5,2
4034,5,2,23,3,-1,17,5,2
4035,5,1,25,3,-2,16,5,1
4036,5,0,30,3,-3,17,4,1
4037,5,-1,34,3,-3,19,4,0
4038,3,-3,36,2,-3,20,2,-1
4039,2,-4,37,1,-3,20,1,-2
4040,1,-5,36,0,-3,18,-1,-3
4041,0,-5,34,-1,-2,14,-2,-3
4042,-2,-5,33,-2,-2,10,-3,-3
4043,-3,-5,33,-4,-1,7,-3,-3
4044,-4,-4,33,-5,-2,6,-4,-3
4045,-5,-5,33,-6,-2,6,-5,-3
4046,-5,-5,34,-7,-2,8,-6,-3
4047,-5,-4,34,-8,-3,10,-6,-2
4048,-4,-3,33,-7,-4,10,-6,-2
4049,-4,-1,31,-7,-4,10,-5,-2
4050,-3,0,29,-6,-4,10,-5,-2
4051,-3,0,28,-5,-4,11,-5,-2
4052,-3,0,27,-6,-4,12,-5,-2
4053,-2,0,27,-6,-4,13,-5,-2
4054,-1,0,27,-6,-4,12,-5,-2
4055,-1,0,27,-5,-3,9,-4,-2
4056,0,0,26,-5,-3,5,-3,-2
4057,1,0,25,-4,-3,2,-2,-3
4058,1,0,24,-3,-3,1,-1,-3
4059,2,1,23,-2,-3,1,0,-3
4060,2,2,24,0,-3,1,1,-3
4061,1,2,25,1,-2,1,1,-3
4062,1,2,26,2,-2,1,1,-2
4063,1,2,29,3,-3,0,2,-3
4064,0,2,31,3,-3,0,2,-3
4065,0,2,31,3,-4,-2,2,-3
4066,0,2,30,3,-5,-4,2,-2
4067,0,3,28,3,-6,-5,3,-2
4068,0,3,28,3,-6,-6,3,-2
4069,0,3,30,2,-7,-6,4,-1
4070,1,2,33,2,-7,-7,4,-1
4071,2,1,36,2,-7,-7,5,-1
4072,4,0,39,2,-7,-6,4,-1
4073,5,-1,42,3,-6,-5,4,-1
4074,6,-1,43,3,-5,-5,4,0
4075,6,-1,46,3,-4,-4,4,0
4076,6,-1,51,4,-2,0,4,0
4077,5,0,58,4,-1,9,4,0
4078,4,1,67,4,1,21,3,1
4079,3,1,75,4,2,32,3,1
4080,2,1,82,4,3,39,2,2
4081,1,1,85,5,3,40,1,2
4082,1,1,87,5,3,36,1,2
4083,2,1,88,5,4,31,1,2
4084,3,2,89,5,4,26,1,1
4085,3,2,89,5,4,22,0,1
4086,3,2,85,5,4,16,0,0
4087,3,3,81,5,3,10,-1,0
4088,2,2,75,5,2,3,-1,0
4089,1,2,67,4,1,-6,-2,-1
4090,0,1,58,3,1,-17,-4,-1
4091,-1,0,49,1,1,-28,-5,-1
4092,-2,-1,44,0,1,-37,-6,-1
4093,-2,-1,42,-1,1,-41,-7,-1
4094,-2,0,41,0,1,-43,-6,-1
4095,-1,2,40,1,1,-44,-5,0
4096,-1,3,38,2,1,-46,-4,1
4097,0,4,35,2,2,-48,-3,2
4098,0,4,32,2,2,-50,-3,2
4099,0,4,28,2,2,-54,-3,2
4100,0,4,23,2,2,-59,-3,2
4101,0,3,19,2,1,-64,-3,2
4102,0,2,16,3,-1,-67,-3,1
4103,0,1,15,3,-3,-66,-4,0
4104,-1,0,16,3,-4,-62,-5,-1
4105,-2,-1,18,2,-6,-56,-5,-1
4106,-4,-2,22,1,-6,-50,-6,-2
4107,-5,-2,27,0,-6,-42,-7,-2
4108,-6,-3,34,-1,-5,-32,-8,-2
4109,-6,-4,40,-2,-5,-23,-9,-3
4110,-7,-5,42,-3,-4,-19,-9,-3
4111,-7,-6,42,-4,-3,-18,-10,-4
4112,-6,-6,40,-4,-2,-19,-10,-4
4113,-5,-6,39,-4,-1,-19,-9,-3
4114,-4,-7,38,-3,-1,-18,-8,-3
4115,-2,-7,37,-2,-1,-17,-6,-3
4116,-1,-6,35,-1,0,-17,-5,-2
4117,1,-5,32,1,-1,-18,-4,-1
4118,2,-3,30,2,-1,-17,-2,0
4119,2,0,29,3,0,-15,-1,1
4120,3,2,28,5,0,-12,-1,2
4121,2,4,28,6,0,-10,0,3
4122,2,5,27,7,0,-9,0,4
4123,2,5,27,8,0,-8,0,5
4124,2,5,28,8,-1,-6,0,5
4125,1,4,28,8,-1,-5,-1,5
4126,1,3,29,8,-1,-5,-2,4
4127,-1,2,28,7,-1,-8,-4,3
4128,-2,2,29,5,-1,-8,-5,2
4129,-4,2,30,4,0,-7,-7,0
4130,-6,2,31,3,0,-5,-7,-1
4131,-8,3,31,2,0,-4,-7,-2
4132,-9,3,28,2,0,-4,-7,-2
4133,-9,4,25,2,0,-3,-7,-1
4134,-9,5,24,3,0,-1,-6,1
4135,-9,6,23,4,0,2,-5,3
4136,-8,7,20,4,1,3,-5,4
4137,-7,8,17,5,1,1,-4,5
4138,-5,8,13,5,2,-1,-4,5
4139,-3,7,12,5,3,0,-3,5
4140,-1,6,11,5,3,2,-3,5
4141,1,5,9,5,3,2,-3,5
4142,2,5,7,6,3,0,-3,5
4143,1,4,4,6,3,-2,-3,5
4144,1,4,4,5,3,-3,-3,4
4145,0,4,4,5,2,-2,-2,4
4146,1,4,4,5,2,-3,-1,3
4147,1,4,3,4,1,-4,0,3
4148,2,3,1,3,0,-6,0,3
4149,3,3,2,2,-2,-5,0,2
4150,4,2,3,1,-3,-2,-1,2
4151,4,2,4,0,-3,0,-2,2
4152,3,1,4,-1,-3,1,-2,3
4153,2,1,4,-2,-2,-1,-3,3
4154,1,1,7,-2,-2,1,-4,3
4155,-1,2,11,-2,-2,6,-4,3
4156,-2,2,15,-2,-2,12,-4,3
4157,-3,1,18,-1,-2,14,-4,3
4158,-3,1,20,-1,-1,10,-3,3
4159,-3,0,21,-1,-1,5,-3,3
4160,-3,-1,22,-2,-1,3,-3,3
4161,-3,-1,24,-2,0,3,-2,3
4162,-2,-1,23,-2,0,3,-1,3
4163,-2,-2,19,-2,0,1,0,2
4164,-2,-2,18,-2,-1,0,1,2
4165,-2,-2,20,-2,0,4,1,2
4166,-2,-1,25,-3,0,12,1,2
4167,-2,1,29,-2,0,20,0,2
4168,-1,2,32,-2,1,27,0,3
4169,-1,2,37,-2,1,36,0,3
4170,1,2,44,-1,2,47,1,3
4171,2,2,52,0,2,62,1,4
4172,4,2,59,1,2,74,1,5
4173,6,1,61,2,1,79,1,7
4174,6,1,58,2,1,77,0,8
4175,6,1,54,2,1,72,-1,8
4176,6,0,50,0,1,66,-3,8
4177,5,-1,46,-2,2,58,-4,8
4178,3,-2,41,-5,2,49,-6,7
4179,2,-3,36,-7,2,40,-8,6
4180,0,-4,32,-8,2,33,-9,5
4181,-2,-5,29,-8,2,28,-10,3
4182,-3,-6,28,-9,1,27,-11,2
4183,-3,-7,27,-9,1,27,-11,0
4184,-2,-8,24,-9,0,25,-11,-1
4185,-1,-8,21,-9,-1,21,-11,-1
4186,0,-8,18,-8,-1,16,-11,-1
4187,0,-8,16,-7,-2,14,-10,-1
4188,-1,-7,14,-7,-2,15,-10,0
4189,-1,-6,13,-6,-2,16,-10,1
4190,0,-5,12,-6,-2,17,-9,2
4191,2,-5,11,-5,-1,16,-8,3
4192,4,-4,10,-5,1,14,-6,3
4193,5,-4,9,-4,2,13,-4,4
4194,5,-3,8,-3,3,13,-2,6
4195,6,-2,7,-1,5,12,0,7
4196,6,0,7,0,5,12,2,7
4197,6,1,7,1,5,12,3,7
4198,6,1,8,1,4,12,3,7
4199,7,0,6,1,3,10,2,6
4200,7,-1,4,1,1,7,1,5
4201,7,-2,2,0,0,5,-1,4
4202,7,-3,1,0,-1,6,-2,4
4203,6,-3,1,-1,-1,8,-2,4
4204,5,-3,0,-2,-1,8,-2,4
4205,4,-3,-1,-2,-1,6,-2,4
4206,3,-3,-3,-2,0,2,-2,5
4207,2,-3,-5,-2,0,-3,-2,5
4208,2,-3,-5,-2,0,-4,-2,4
4209,1,-2,-5,-2,0,-2,-2,4
4210,1,-1,-6,-2,0,0,-2,3
4211,1,0,-11,-2,-1,-3,-2,2
4212,0,1,-15,-3,0,-9,-1,2
4213,-1,3,-16,-3,0,-13,-1,1
4214,-2,4,-15,-4,1,-14,-1,1
4215,-3,5,-14,-4,2,-13,-1,1
4216,-3,5,-14,-5,3,-12,-1,1
4217,-3,5,-13,-6,2,-13,-1,1
4218,-3,4,-10,-6,2,-11,-2,1
4219,-3,3,-4,-6,1,-4,-3,1
4220,-3,2,4,-6,1,7,-3,1
4221,-3,1,15,-5,0,22,-4,0
4222,-3,0,37,-5,0,52,-6,-1
4223,-2,-2,72,-4,0,100,-8,-2
4224,-2,-3,104,-4,2,148,-10,-3
4225,-1,-5,112,-3,3,166,-11,-4
4226,-1,-6,89,-3,3,139,-11,-4
4227,-1,-7,38,-3,3,71,-10,-4
4228,-2,-6,-24,-4,1,-18,-7,-3
4229,-2,-6,-77,-5,-1,-97,-4,-3
4230,-2,-5,-103,-5,-3,-144,-1,-3
4231,-2,-4,-106,-6,-4,-157,1,-3
4232,-1,-4,-102,-6,-4,-155,2,-2
4233,-1,-3,-99,-6,-4,-151,3,-2
4234,-1,-3,-90,-5,-3,-140,4,-1
4235,-1,-2,-69,-4,-2,-113,5,-1
4236,-2,-2,-37,-3,-1,-69,5,0
4237,-2,-1,-4,-3,0,-20,5,0
4238,-3,-1,16,-2,1,16,5,0
4239,-3,-1,24,-1,2,33,4,1
4240,-3,0,29,0,2,42,4,1
4241,-4,0,36,1,2,55,3,1
4242,-4,1,42,2,2,68,3,1
4243,-4,2,44,2,2,74,3,1
4244,-5,3,39,3,2,69,3,1
4245,-4,3,32,3,2,58,4,0
4246,-4,4,29,4,2,50,5,0
4247,-3,4,29,4,2,46,5,0
4248,-2,4,30,4,3,43,5,0
4249,-1,3,28,3,4,40,5,1
4250,-1,2,24,2,4,36,4,0
4251,-2,0,21,0,3,33,3,0
4252,-3,-1,19,-2,2,33,2,-1
4253,-4,-2,18,-3,2,32,0,-2
4254,-6,-2,15,-4,1,27,-1,-3
4255,-8,-1,9,-5,1,19,-2,-4
4256,-9,0,4,-6,2,10,-3,-4
4257,-9,1,0,-7,2,3,-3,-3
4258,-9,1,-5,-7,2,-5,-4,-3
4259,-9,1,-11,-8,2,-14,-4,-2
4260,-9,2,-20,-8,2,-25,-5,-2
4261,-8,2,-27,-8,2,-34,-5,-1
4262,-8,1,-32,-7,2,-40,-5,-1
4263,-7,1,-34,-6,2,-42,-4,0
4264,-6,0,-36,-4,1,-42,-4,0
4265,-5,-1,-38,-3,0,-44,-3,0
4266,-4,-1,-39,-2,-1,-46,-2,0
4267,-4,-1,-37,-1,-1,-45,-1,0
4268,-5,1,-31,0,-2,-40,0,0
4269,-5,3,-23,2,-3,-32,1,1
4270,-5,5,-16,3,-2,-24,3,1
4271,-4,7,-9,5,-2,-17,4,2
4272,-4,8,-4,6,-1,-11,6,2
4273,-4,9,1,6,-1,-5,6,2
4274,-4,9,3,6,-1,-1,7,1
4275,-4,8,3,6,-1,1,7,1
4276,-4,7,2,6,-2,2,6,0
4277,-3,6,2,5,-2,4,6,-1
4278,-2,5,3,5,-3,7,6,-1
4279,0,4,4,5,-2,10,6,-1
4280,1,3,5,4,-2,12,6,-1
4281,1,3,7,4,-2,13,5,-2
4282,0,3,10,4,-2,17,4,-2
4283,0,3,12,3,-2,22,4,-2
4284,0,3,14,4,-2,26,3,-2
4285,0,3,14,4,-2,27,4,-2
4286,1,3,13,5,-1,25,4,-2
4287,1,3,13,5,-1,23,4,-2
4288,1,3,15,5,0,23,4,-2
4289,0,3,19,4,0,26,4,-2
4290,0,3,23,3,0,31,4,-2
4291,0,2,28,2,0,35,4,-2
4292,0,1,34,1,0,41,4,-2
4293,0,1,42,0,0,50,4,-2
4294,1,0,51,0,1,63,4,-3
4295,1,0,58,1,1,74,3,-3
4296,1,0,60,1,2,80,3,-2
4297,1,1,60,2,2,83,3,-2
4298,1,1,61,2,2,87,3,-2
4299,0,2,64,2,1,94,3,-2
4300,-1,2,68,3,1,101,2,-3
4301,-1,2,72,3,1,107,2,-3
4302,-2,1,75,3,1,111,1,-4
4303,-3,0,77,2,1,114,0,-5
4304,-4,-2,76,1,1,112,-1,-7
4305,-4,-4,71,-1,1,106,-1,-8
4306,-5,-5,63,-2,0,96,-2,-8
4307,-5,-5,54,-2,-1,83,-3,-8
4308,-4,-5,46,-2,-1,71,-3,-7
4309,-4,-5,39,-2,-1,58,-3,-6
4310,-4,-4,34,-1,0,47,-3,-5
4311,-4,-3,31,0,1,41,-2,-4
4312,-4,-2,31,0,1,38,-2,-3
4313,-3,-1,32,0,1,37,-1,-3
4314,-3,-1,31,0,1,36,-1,-2
4315,-2,-2,28,0,1,31,-2,-2
4316,-3,-3,24,-1,0,22,-2,-2
4317,-3,-4,19,-1,-1,10,-3,-3
4318,-4,-6,13,-2,-2,-1,-4,-3
4319,-4,-6,8,-2,-3,-11,-5,-4
4320,-4,-6,3,-2,-3,-20,-5,-4
4321,-4,-6,-1,-2,-3,-27,-5,-5
4322,-4,-5,-2,-2,-2,-30,-4,-5
4323,-4,-4,-1,-3,-2,-28,-3,-4
4324,-4,-2,2,-3,-1,-24,-3,-4
4325,-4,-1,5,-4,1,-21,-2,-3
4326,-4,-1,6,-4,1,-20,-1,-2
4327,-3,0,8,-5,2,-20,0,-2
4328,-3,1,8,-5,3,-19,0,-2
4329,-2,2,7,-5,3,-17,0,-1
4330,-2,3,6,-5,3,-15,0,-1
4331,-2,4,5,-5,3,-14,0,0
4332,-2,4,5,-5,2,-15,-1,1
4333,-3,4,6,-6,2,-16,-2,1
4334,-4,3,8,-6,1,-18,-3,1
4335,-5,1,10,-7,1,-20,-4,1
4336,-6,0,11,-7,2,-23,-5,1
4337,-6,-1,11,-8,2,-27,-6,0
4338,-6,-1,11,-8,2,-31,-7,0
4339,-6,-2,12,-8,2,-34,-7,0
4340,-6,-1,12,-8,2,-35,-8,-1
4341,-6,0,11,-8,2,-34,-7,-1
4342,-5,1,8,-7,2,-32,-6,0
4343,-4,2,5,-7,2,-30,-5,0
4344,-3,2,4,-7,3,-27,-4,1
4345,-1,2,5,-6,3,-27,-3,1
4346,-1,2,6,-6,4,-28,-3,2
4347,-1,2,7,-6,5,-31,-3,2
4348,-2,2,7,-6,6,-33,-3,2
4349,-3,3,8,-6,6,-34,-3,2
4350,-3,3,8,-7,6,-34,-4,2
4351,-4,4,7,-7,6,-34,-4,1
4352,-5,4,4,-7,6,-35,-4,1
4353,-5,5,2,-7,6,-37,-4,2
4354,-6,5,-1,-6,5,-38,-4,2
4355,-6,5,-4,-5,3,-40,-4,1
4356,-5,4,-6,-4,2,-43,-3,1
4357,-5,3,-8,-3,1,-45,-3,0
4358,-5,2,-8,-2,1,-45,-2,-1
4359,-5,1,-7,-2,1,-42,-2,-2
4360,-5,0,-5,-2,1,-41,-1,-3
4361,-4,0,-4,-2,1,-40,-1,-4
4362,-4,0,-3,-1,2,-40,0,-5
4363,-3,0,-2,0,2,-40,1,-6
4364,-2,1,-2,1,2,-39,1,-6
4365,-2,2,-2,1,2,-39,1,-6
4366,-1,4,-1,1,2,-40,1,-5
4367,-1,5,-2,0,3,-41,1,-4
4368,1,7,-3,0,3,-40,1,-3
4369,2,8,-5,0,3,-36,2,-2
4370,3,8,-8,1,4,-33,3,-1
4371,4,8,-12,2,4,-32,4,0
4372,4,7,-16,3,3,-33,5,0
4373,4,7,-17,4,3,-34,6,0
4374,5,6,-15,5,4,-32,6,1
4375,5,6,-12,5,4,-30,6,2
4376,5,5,-10,4,4,-28,6,3
4377,5,5,-10,3,4,-28,5,3
4378,4,5,-10,2,4,-29,4,3
4379,4,4,-8,2,4,-30,4,2
4380,3,4,-7,1,5,-29,4,1
4381,2,3,-6,1,5,-28,3,1
4382,2,2,-5,0,6,-27,3,0
4383,2,2,-5,0,6,-27,3,0
4384,1,2,-6,-1,5,-26,4,0
4385,1,3,-6,-1,4,-24,4,-1
4386,1,3,-5,-1,3,-20,5,-1
4387,2,4,-5,-2,2,-15,4,-1
4388,2,4,-7,-2,2,-12,3,-1
4389,2,4,-7,-3,2,-11,2,-1
4390,2,4,-7,-4,2,-9,1,-1
4391,2,4,-5,-4,2,-8,0,-1
4392,2,4,-3,-4,2,-9,0,0
4393,2,4,-2,-3,2,-12,1,0
4394,2,5,-2,-2,2,-15,2,0
4395,2,5,-2,-1,3,-15,3,0
4396,2,5,-2,0,3,-15,4,-1
4397,2,5,-3,0,3,-15,4,-1
4398,3,5,-5,0,3,-16,4,-1
4399,4,4,-6,0,4,-16,4,-1
4400,4,4,-5,0,4,-15,4,0
4401,4,4,-3,0,5,-14,4,0
4402,4,4,-2,0,4,-14,3,0
4403,3,3,-1,1,3,-15,3,1
4404,3,2,-1,1,3,-14,3,0
4405,3,2,-1,1,2,-12,2,0
4406,3,2,-3,1,2,-10,2,0
4407,3,2,-7,1,2,-12,2,-1
4408,3,3,-10,1,2,-14,2,-1
4409,3,3,-11,1,3,-16,2,-1
4410,3,3,-11,1,3,-16,2,-1
4411,3,3,-11,2,3,-16,2,-2
4412,3,3,-10,2,4,-16,2,-2
4413,3,3,-10,2,4,-16,1,-2
4414,2,3,-9,2,4,-15,1,-3
4415,2,4,-6,2,4,-12,1,-2
4416,2,5,-4,2,4,-10,1,-2
4417,3,5,-2,3,4,-7,1,-1
4418,3,5,-1,3,4,-4,1,1
4419,3,5,1,3,5,-1,1,2
4420,2,5,2,2,6,2,1,3
4421,2,5,4,1,6,3,1,3
4422,1,5,3,-1,6,3,0,3
4423,0,4,1,-2,5,0,-1,2
4424,-1,3,-1,-3,4,-5,-2,0
4425,-2,2,-3,-3,2,-7,-2,-1
4426,-3,2,-3,-4,1,-7,-2,-2
4427,-4,1,-3,-4,1,-6,-2,-3
4428,-4,1,-3,-4,1,-7,-2,-3
4429,-5,0,-5,-4,1,-9,-2,-4
4430,-5,0,-8,-5,2,-12,-2,-4
4431,-4,0,-9,-4,2,-12,-1,-4
4432,-3,1,-9,-3,3,-10,0,-3
4433,-1,1,-9,-2,3,-8,1,-2
4434,0,1,-10,1,3,-7,2,-1
4435,1,2,-12,3,3,-7,4,0
4436,1,2,-12,4,3,-7,4,1
4437,1,2,-12,4,3,-7,4,1
4438,1,1,-12,3,3,-9,3,1
4439,0,1,-14,2,3,-13,2,1
4440,-1,0,-15,1,2,-16,1,1
4441,-1,-1,-16,1,2,-16,1,-1
4442,0,-2,-16,0,1,-13,2,-1
4443,1,-2,-14,0,-1,-8,3,-2
4444,2,-2,-12,1,-2,-3,3,-3
4445,2,-2,-8,1,-3,3,3,-3
4446,3,-2,-4,1,-3,7,4,-3
4447,2,-1,-2,1,-3,9,3,-3
4448,1,-1,-2,0,-3,9,3,-3
4449,0,-1,-3,-1,-3,6,2,-3
4450,-1,-2,-5,-2,-2,4,2,-3
4451,-1,-2,-5,-2,-2,1,1,-3
4452,-1,-3,-5,-2,-1,0,1,-3
4453,0,-3,-4,-2,-1,1,1,-3
4454,1,-3,-4,-1,-1,2,2,-3
4455,1,-2,-5,1,-1,3,2,-2
4456,2,-1,-4,3,-1,4,3,-2
4457,2,0,-2,5,-2,6,3,-1
4458,3,1,1,7,-2,7,4,-1
4459,3,1,3,8,-3,8,5,-1
4460,4,1,4,8,-3,10,6,-2
4461,3,1,6,8,-3,12,5,-2
4462,2,1,8,7,-3,14,4,-3
4463,0,1,9,6,-3,16,3,-3
4464,-2,1,9,5,-2,16,2,-3
4465,-4,1,9,5,-2,17,1,-3
4466,-5,1,8,4,-1,19,-1,-3
4467,-6,1,7,3,-1,20,-1,-3
4468,-6,1,6,2,-1,21,-2,-3
4469,-7,0,6,1,-1,21,-3,-4
4470,-7,-1,5,-1,-2,21,-3,-4
4471,-6,-1,5,-2,-3,21,-3,-5
4472,-4,-2,4,-3,-3,20,-3,-6
4473,-3,-3,1,-3,-3,16,-3,-6
4474,-2,-3,-4,-3,-3,11,-3,-5
4475,-1,-3,-8,-3,-3,5,-3,-5
4476,0,-3,-9,-2,-3,3,-3,-4
4477,0,-2,-9,-2,-3,5,-3,-4
4478,-1,-2,-7,-2,-2,7,-4,-4
4479,-1,-2,-7,-2,-2,9,-4,-3
4480,-1,-3,-8,-1,-1,9,-4,-3
4481,-1,-3,-8,0,-1,8,-4,-3
4482,-1,-3,-9,1,0,7,-3,-2
4483,-1,-3,-9,2,-1,6,-3,-2
4484,-1,-2,-8,2,-1,5,-3,-2
4485,-1,-2,-6,2,-1,7,-2,-2
4486,-1,-1,-5,2,-2,10,-2,-2
4487,0,-1,-3,2,-2,14,-2,-2
4488,-1,-1,-2,2,-3,18,-2,-1
4489,-1,-1,-1,2,-3,20,-2,-1
4490,-1,-2,-1,2,-4,19,-2,-1
4491,-1,-3,-1,2,-5,18,-2,0
4492,-1,-3,-2,2,-6,18,-1,0
4493,-1,-2,-2,2,-6,20,-1,1
4494,1,-1,-4,3,-6,21,1,1
4495,1,0,-6,3,-6,21,2,2
4496,2,0,-8,3,-6,20,3,2
4497,3,0,-7,4,-6,21,4,2
4498,3,0,-7,4,-6,21,4,2
4499,3,1,-7,4,-5,20,5,2
4500,2,1,-8,3,-5,19,5,2
4501,1,3,-8,2,-5,21,5,2
4502,0,4,-6,1,-5,26,5,2
4503,0,4,-5,1,-5,28,5,2
4504,1,5,-6,0,-4,28,4,3
4505,1,5,-8,0,-4,25,4,4
4506,1,4,-9,0,-4,23,3,4
4507,1,4,-9,-1,-3,23,2,5
4508,1,4,-8,-1,-3,25,2,5
4509,1,4,-8,-2,-3,27,1,5
